IESNA:LM-63-2002
[TEST] 1
[TESTLAB] AOK
[TESTDATE] 2022-06-25
[ISSUEDATE] 2022-06-25 15:52:23
[NEARFIELD] 
[LAMPPOSITION] 0,0
[OTHER] EVERFINE GO-2000A_V1 SYSTEM
[MANUFAC] AOK
[LUMCAT] A
[LUMINAIRE] AOK-600WiSF-NV-S35-00-5070-2030D-P
[LAMPCAT] B
[LAMP] 3535
[BALLAST] E
[BALLASTCAT] F
[OTHER] 
[OTHER] Gamma(deg)    Fz(lm)      Ft(lm)     %Lum    %Lamp
[OTHER]   0- 10     22979.21    22979.21    31.90    31.90
[OTHER]  10- 20     24495.44    47474.65    65.91    65.91
[OTHER]  20- 30     10077.64    57552.29    79.91    79.91
[OTHER]  30- 40      5016.45    62568.74    86.87    86.87
[OTHER]  40- 50      3212.72    65781.46    91.33    91.33
[OTHER]  50- 60      2526.91    68308.37    94.84    94.84
[OTHER]  60- 70      1738.46    70046.83    97.25    97.25
[OTHER]  70- 80       832.06    70878.89    98.41    98.41
[OTHER]  80- 90       359.77    71238.66    98.91    98.91
[OTHER]  90-100       200.06    71438.73    99.19    99.19
[OTHER] 100-110       146.91    71585.64    99.39    99.39
[OTHER] 110-120       118.47    71704.12    99.55    99.55
[OTHER] 120-130        89.96    71794.08    99.68    99.68
[OTHER] 130-140        64.94    71859.01    99.77    99.77
[OTHER] 140-150        52.63    71911.64    99.84    99.84
[OTHER] 150-160        54.01    71965.65    99.92    99.92
[OTHER] 160-170        43.94    72009.59    99.98    99.98
[OTHER] 170-180        15.87    72025.46   100.00   100.00
[OTHER] 
TILT=NONE
1 72025 1 181 25 1 2 0.150 0.200 0.000
1.000 1 598.999
0.0    1.0    2.0    3.0    4.0    5.0    6.0    7.0    8.0    9.0    
 10.0   11.0   12.0   13.0   14.0   15.0   16.0   17.0   18.0   19.0   
 20.0   21.0   22.0   23.0   24.0   25.0   26.0   27.0   28.0   29.0   
 30.0   31.0   32.0   33.0   34.0   35.0   36.0   37.0   38.0   39.0   
 40.0   41.0   42.0   43.0   44.0   45.0   46.0   47.0   48.0   49.0   
 50.0   51.0   52.0   53.0   54.0   55.0   56.0   57.0   58.0   59.0   
 60.0   61.0   62.0   63.0   64.0   65.0   66.0   67.0   68.0   69.0   
 70.0   71.0   72.0   73.0   74.0   75.0   76.0   77.0   78.0   79.0   
 80.0   81.0   82.0   83.0   84.0   85.0   86.0   87.0   88.0   89.0   
 90.0   91.0   92.0   93.0   94.0   95.0   96.0   97.0   98.0   99.0   
 100.0  101.0  102.0  103.0  104.0  105.0  106.0  107.0  108.0  109.0  
 110.0  111.0  112.0  113.0  114.0  115.0  116.0  117.0  118.0  119.0  
 120.0  121.0  122.0  123.0  124.0  125.0  126.0  127.0  128.0  129.0  
 130.0  131.0  132.0  133.0  134.0  135.0  136.0  137.0  138.0  139.0  
 140.0  141.0  142.0  143.0  144.0  145.0  146.0  147.0  148.0  149.0  
 150.0  151.0  152.0  153.0  154.0  155.0  156.0  157.0  158.0  159.0  
 160.0  161.0  162.0  163.0  164.0  165.0  166.0  167.0  168.0  169.0  
 170.0  171.0  172.0  173.0  174.0  175.0  176.0  177.0  178.0  179.0  
 180.0  
0.0    15.0   30.0   45.0   60.0   75.0   90.0   105.0  120.0  135.0  
 150.0  165.0  180.0  195.0  210.0  225.0  240.0  255.0  270.0  285.0  
 300.0  315.0  330.0  345.0  360.0  
320741.53 321735.86 319256.43 311838.06 277520.85 230122.39 185226.91 135708.70 103591.55 71686.86 
 39782.17 21314.09 11988.49 8157.48  4385.37  613.26   488.86   331.60   141.17   93.15    
 46.88    34.81    27.55    22.38    18.79    16.22    14.08    12.47    11.28    10.24    
 9.56     9.83     10.03    10.06    9.45     8.77     8.28     7.31     6.50     5.81     
 5.57     5.43     5.11     4.95     4.70     4.55     4.57     4.66     4.38     4.02     
 3.89     3.79     3.78     3.78     3.88     4.00     3.90     3.81     3.73     3.73     
 3.73     3.74     3.74     3.74     3.73     3.72     3.70     3.68     3.66     3.65     
 3.64     3.63     3.62     3.62     3.60     3.60     3.60     3.60     3.59     3.58     
 3.58     3.58     3.58     3.63     3.86     4.09     4.21     4.33     4.38     4.43     
 4.48     4.55     4.62     4.63     4.63     4.67     4.77     4.89     5.06     5.27     
 5.49     5.75     6.05     6.39     6.75     7.12     7.49     7.86     8.23     8.58     
 8.92     9.25     9.57     9.90     10.24    10.61    11.03    11.46    11.94    12.44    
 12.95    13.51    14.09    14.71    15.35    16.01    16.71    17.47    18.25    19.06    
 19.89    20.75    21.64    22.58    23.56    24.63    25.95    27.55    29.48    31.67    
 34.22    37.09    40.35    44.13    48.39    53.20    58.70    64.94    71.93    80.58    
 90.68    102.10   114.76   128.40   142.75   157.69   174.15   190.63   206.78   222.33   
 238.32   254.31   267.15   277.99   286.34   291.47   293.82   293.20   289.92   284.62   
 277.15   268.19   257.84   246.81   234.93   222.65   210.10   197.12   182.89   167.18   
 150.33   
320741.53 321444.62 319839.67 313657.84 298237.52 251776.27 205357.63 163214.41 114126.07 83151.18 
 52270.15 39594.10 26918.05 14242.00 1676.89  1450.04  1192.91  828.58   800.15   629.43   
 502.82   408.22   313.62   219.28   157.29   123.18   94.65    74.13    58.56    47.03    
 42.00    37.62    35.84    28.82    20.39    16.54    13.84    11.78    10.22    8.99     
 8.39     8.40     8.36     8.29     7.93     7.64     7.39     7.15     6.97     6.64     
 6.26     6.00     5.75     5.52     5.32     5.13     4.94     4.76     4.64     4.50     
 4.31     4.16     3.98     3.82     3.69     3.60     3.50     3.41     3.35     3.27     
 3.20     3.12     3.05     2.99     2.94     2.90     2.86     2.85     2.85     2.86     
 2.89     2.92     2.96     3.00     3.05     3.12     3.19     3.26     3.35     3.45     
 3.56     3.68     3.79     3.92     4.07     4.23     4.41     4.61     4.84     5.09     
 5.36     5.64     5.94     6.27     6.61     6.97     7.32     7.66     8.00     8.34     
 8.69     9.05     9.40     9.74     10.12    10.54    11.03    11.53    12.03    12.55    
 13.11    13.70    14.33    14.99    15.66    16.38    17.13    17.92    18.75    19.60    
 20.46    21.35    22.27    23.27    24.34    25.60    27.21    29.04    31.17    33.62    
 36.49    39.69    43.29    47.31    51.90    57.11    62.97    69.78    77.61    86.77    
 97.32    109.01   122.82   136.64   151.41   166.86   182.62   198.38   214.53   230.02   
 244.94   258.89   271.08   281.16   288.18   291.91   292.81   290.73   286.16   279.41   
 271.03   261.44   250.93   239.76   227.98   215.63   202.71   188.91   174.24   159.78   
 150.33   
320741.53 320619.84 318307.04 311387.54 300791.60 270184.66 224337.06 186693.34 148437.63 116729.03 
 85098.58 53468.14 36508.67 20298.34 14667.48 8501.78  2329.32  2059.54  1720.64  1295.70  
 1010.54  727.07   613.54   458.78   347.12   281.44   215.04   163.06   148.57   126.70   
 104.73   82.76    71.59    61.88    54.40    47.20    41.19    34.79    29.98    25.81    
 22.23    18.57    16.29    14.63    13.57    12.54    11.70    11.13    10.52    9.67     
 8.97     8.18     7.35     6.81     6.42     6.14     5.80     5.45     5.10     4.76     
 4.51     4.32     4.18     4.05     3.90     3.72     3.52     3.33     3.20     3.09     
 3.00     2.93     2.87     2.81     2.75     2.70     2.65     2.58     2.53     2.52     
 2.51     2.51     2.57     2.64     2.72     2.80     2.91     3.02     3.14     3.28     
 3.44     3.60     3.78     3.97     4.18     4.40     4.63     4.87     5.11     5.37     
 5.61     5.87     6.14     6.41     6.70     7.01     7.33     7.65     8.00     8.37     
 8.75     9.14     9.53     9.94     10.39    10.86    11.34    11.81    12.31    12.85    
 13.42    13.99    14.58    15.21    15.87    16.55    17.26    18.00    18.81    19.70    
 20.68    21.78    23.08    24.56    26.23    28.17    30.44    33.05    35.94    39.18    
 42.77    46.74    51.19    56.12    61.59    67.95    75.37    83.63    92.81    102.90   
 113.74   125.69   138.56   151.91   165.62   179.76   194.35   208.68   222.88   236.91   
 250.93   261.73   270.60   277.04   280.94   282.33   281.13   277.69   272.39   265.34   
 257.01   247.62   237.78   226.93   215.60   203.97   192.11   179.68   168.08   157.22   
 150.33   
320741.53 320714.06 317448.31 311303.70 302036.63 289219.10 257641.29 226063.49 194475.27 161482.32 
 126459.57 98276.75 68459.89 56061.38 37235.48 28771.95 20308.42 11893.96 8519.21  5144.47  
 1793.53  1537.78  1110.50  794.00   545.30   356.51   270.35   184.72   155.01   132.87   
 114.97   100.80   89.20    79.64    71.26    63.86    56.85    51.34    46.75    42.10    
 37.66    33.76    30.37    27.00    24.11    21.01    17.92    15.44    13.41    12.05    
 11.16    10.40    9.75     9.22     8.76     8.33     7.93     7.58     7.26     6.95     
 6.67     6.38     6.12     5.87     5.68     5.49     5.29     5.08     4.85     4.60     
 4.35     4.09     3.83     3.62     3.41     3.17     2.96     2.78     2.62     2.46     
 2.40     2.41     2.44     2.50     2.59     2.68     2.79     2.91     3.04     3.18     
 3.34     3.51     3.68     3.87     4.06     4.28     4.48     4.71     4.94     5.19     
 5.45     5.70     5.98     6.28     6.60     6.91     7.24     7.58     7.93     8.28     
 8.66     9.05     9.45     9.83     10.25    10.68    11.13    11.60    12.08    12.58    
 13.10    13.66    14.25    14.90    15.58    16.35    17.24    18.25    19.36    20.59    
 21.98    23.58    25.33    27.31    29.48    31.89    34.68    37.71    41.07    44.86    
 49.18    53.95    59.26    65.23    71.86    79.40    87.56    96.55    106.22   116.61   
 128.39   140.17   151.97   164.74   177.47   190.37   203.18   215.19   226.84   237.26   
 246.43   253.84   259.70   263.75   265.85   266.15   264.76   261.57   257.14   251.31   
 245.11   237.55   229.10   219.96   210.68   201.09   191.28   181.24   171.83   163.08   
 150.33   
320741.53 319305.03 314309.52 307106.49 297027.70 285784.44 271612.84 254918.24 235706.10 208921.58 
 173821.00 143440.91 121948.26 99311.18 76660.54 61873.61 42787.35 32168.45 25588.36 18664.58 
 12938.56 9916.44  6925.88  5323.74  4287.15  1705.21  1167.10  949.79   735.54   529.47   
 381.41   285.90   227.95   190.35   159.99   134.26   116.01   97.85    84.06    72.94    
 63.96    57.06    51.20    46.09    41.77    37.65    34.15    31.49    29.07    27.03    
 25.21    23.37    21.21    19.22    17.01    14.90    13.25    12.06    11.30    10.74    
 10.35    10.06    9.77     9.51     9.27     9.08     8.89     8.70     8.53     8.34     
 8.10     7.82     7.47     7.09     6.64     6.14     5.58     4.89     4.18     3.48     
 2.90     2.68     2.66     2.69     2.77     2.88     2.97     3.09     3.21     3.35     
 3.50     3.66     3.83     4.02     4.22     4.44     4.67     4.92     5.18     5.45     
 5.73     6.03     6.33     6.65     6.98     7.33     7.67     8.03     8.38     8.75     
 9.13     9.51     9.88     10.29    10.72    11.15    11.59    12.06    12.56    13.10    
 13.70    14.34    15.06    15.87    16.77    17.74    18.80    20.02    21.37    22.85    
 24.44    26.20    28.18    30.30    32.76    35.57    38.79    42.45    46.58    51.23    
 56.40    62.28    68.85    76.06    83.88    92.39    101.44   111.00   120.91   131.54   
 142.52   153.63   164.67   175.47   185.92   196.47   206.62   215.81   223.88   231.06   
 237.35   242.39   247.42   249.71   250.87   250.76   249.62   247.24   243.63   239.73   
 234.61   228.77   222.71   216.01   208.97   201.32   193.75   185.96   178.25   170.64   
 150.33   
320741.53 318321.73 313222.26 305725.26 295839.16 284492.39 271927.26 258210.42 241984.23 225739.37 
 207075.01 187177.80 165761.00 143689.07 122213.61 102641.84 85314.33 69248.78 55583.05 42706.48 
 34496.54 29324.31 25675.48 22025.41 18237.03 15314.05 13307.19 11559.92 9875.04  7776.24  
 6277.23  5154.24  4214.83  3508.89  2890.49  2274.11  1891.72  1575.83  1278.91  1039.78  
 843.40   665.02   525.35   420.53   340.77   271.16   201.78   159.97   128.57   104.71   
 87.82    74.83    64.28    56.66    49.68    44.49    40.43    36.68    33.91    31.69    
 29.90    28.16    26.79    25.55    24.50    23.33    21.87    20.42    19.24    18.48    
 18.08    17.96    17.86    17.73    17.58    17.35    17.01    16.31    14.82    12.54    
 9.33     5.54     2.39     2.25     2.31     2.39     2.47     2.54     2.64     2.74     
 2.86     2.99     3.13     3.29     3.47     3.65     3.86     4.08     4.31     4.56     
 4.81     5.08     5.37     5.66     5.98     6.31     6.65     7.00     7.37     7.74     
 8.13     8.52     8.94     9.34     9.75     10.17    10.64    11.15    11.65    12.19    
 12.79    13.49    14.24    15.05    15.95    16.96    18.06    19.27    20.57    22.04    
 23.63    25.37    27.41    29.65    32.22    35.18    38.67    42.64    47.04    52.09    
 57.93    64.26    71.20    78.75    86.92    95.63    104.57   113.91   123.94   133.96   
 143.89   153.81   163.29   172.99   182.31   191.39   200.03   207.96   215.62   222.57   
 228.68   234.25   238.90   242.79   245.66   247.46   248.21   248.02   246.55   244.33   
 241.22   237.31   232.56   226.93   220.68   213.63   206.05   198.26   189.85   181.51   
 150.33   
320741.53 316767.41 310450.68 302060.96 291541.45 280583.29 268490.43 255177.31 240029.13 224880.96 
 209700.14 191481.35 171969.96 150883.74 129882.23 109220.26 91138.54 75795.46 63802.56 54094.99 
 46197.09 39759.73 34725.08 30752.15 27413.93 24859.99 22310.13 20102.26 18052.55 16107.27 
 14226.57 12506.81 10963.95 9622.31  8485.12  7560.70  6855.35  6239.35  5732.21  5328.51  
 4970.70  4654.58  4395.30  4217.79  4029.43  3850.96  3645.19  3415.35  3169.25  2904.67  
 2666.14  2427.96  2216.98  2022.04  1838.11  1667.68  1509.59  1360.98  1227.28  1110.77  
 1005.16  908.73   815.55   729.30   645.75   573.77   507.56   448.64   393.25   344.34   
 301.14   267.34   233.55   199.86   174.11   152.53   134.02   118.37   103.83   92.05    
 80.49    69.57    56.78    7.47     2.51     2.10     1.76     1.58     1.44     1.36     
 1.26     1.17     1.16     1.16     1.17     1.19     1.21     1.24     1.26     1.29     
 1.33     1.36     1.40     1.44     1.46     1.51     1.56     1.60     1.65     1.70     
 1.76     1.82     1.87     1.94     2.00     2.07     2.16     2.24     2.32     2.42     
 2.53     2.64     2.76     2.89     3.04     3.22     3.40     3.62     3.84     4.10     
 4.39     4.72     5.09     5.52     6.03     6.59     7.24     7.98     8.80     9.71     
 10.77    11.92    13.15    14.52    15.98    17.56    19.20    20.87    22.60    24.39    
 26.26    28.12    30.05    32.05    34.09    36.21    38.48    40.91    43.44    46.07    
 48.79    51.70    54.82    58.20    61.83    65.84    70.16    75.46    80.77    87.14    
 94.44    102.59   111.28   120.53   130.18   140.14   150.38   160.58   170.45   179.77   
 150.33   
320741.53 316427.98 309686.43 301638.29 291746.53 280778.08 269966.72 258456.13 245497.91 231045.99 
 215216.87 197816.75 179272.70 159822.42 139506.81 119574.55 101665.69 83771.74 70206.16 59748.73 
 51772.27 45869.98 41123.08 37375.40 34185.39 31206.42 28700.73 26318.23 23969.03 21717.41 
 19455.06 17391.09 15457.41 13668.97 12115.47 10913.67 9714.76  8843.76  8163.31  7646.42  
 7229.35  6886.20  6582.82  6315.70  6082.47  5874.79  5672.07  5481.24  5296.44  5113.65  
 4919.95  4710.65  4492.92  4260.12  4017.71  3782.31  3555.67  3348.05  3163.50  2981.90  
 2806.65  2645.72  2494.71  2346.16  2213.41  2076.48  1944.63  1816.38  1690.93  1571.42  
 1459.87  1355.09  1251.83  1158.09  1064.43  970.78   889.13   812.73   739.57   675.32   
 617.39   563.38   516.05   473.56   436.25   404.56   376.65   351.00   332.54   313.04   
 294.43   277.40   263.23   249.34   236.77   225.30   213.56   202.36   193.42   183.40   
 174.64   166.37   158.90   151.91   144.79   137.85   131.64   126.07   120.51   114.95   
 109.86   105.01   99.72    94.77    89.70    85.09    80.95    76.53    72.40    67.71    
 63.64    59.79    55.69    51.18    46.87    42.47    38.11    31.97    25.68    18.90    
 13.86    10.70    8.95     7.41     5.76     4.85     5.03     5.52     6.21     6.99     
 7.89     8.88     9.96     11.13    12.44    13.83    15.30    16.82    18.45    20.14    
 21.87    23.59    25.34    27.13    28.91    30.67    32.52    34.40    36.28    38.21    
 40.21    42.29    44.45    46.78    49.25    52.02    55.25    59.15    63.99    69.72    
 76.55    84.83    93.90    103.81   114.44   125.76   137.46   149.51   161.17   172.45   
 150.33   
320741.53 316583.12 310418.50 302524.49 293263.29 283600.89 272957.92 261646.79 246776.11 231905.40 
 216996.08 198498.80 179102.13 160035.70 140593.67 121970.56 103850.78 86846.14 72620.46 62343.98 
 55123.97 49656.11 45225.73 41655.05 38371.14 35319.38 32485.28 29638.15 26998.57 24476.50 
 21955.57 19548.95 17280.59 15279.52 13534.93 12033.32 10732.48 9669.25  8854.90  8274.20  
 7845.15  7533.68  7271.61  7055.89  6853.98  6651.93  6471.99  6293.84  6133.35  5965.51  
 5809.97  5660.43  5485.95  5302.32  5100.72  4889.99  4674.45  4451.84  4232.54  3992.53  
 3769.01  3539.46  3333.38  3143.93  2960.84  2773.37  2591.92  2410.56  2234.98  2062.85  
 1903.05  1751.46  1611.60  1472.92  1347.25  1224.30  1114.80  1012.98  918.99   833.84   
 755.36   688.75   634.88   588.82   548.79   513.07   482.58   453.48   430.81   409.34   
 389.11   369.51   352.52   337.37   323.11   309.69   298.13   286.64   276.45   267.09   
 258.04   250.09   242.62   235.40   228.20   222.44   216.87   211.47   206.84   202.28   
 197.90   193.54   189.54   185.79   181.97   178.14   174.40   170.63   167.00   163.62   
 160.67   157.28   154.16   151.06   147.64   144.05   140.87   137.44   134.10   130.90   
 127.19   123.56   119.91   116.10   112.10   107.83   102.95   97.58    92.32    86.79    
 80.66    74.43    66.75    59.74    55.86    53.26    50.70    36.66    20.74    17.47    
 17.50    18.90    20.78    22.78    24.81    26.85    28.91    30.96    33.09    35.22    
 37.39    39.46    41.51    43.61    45.71    47.89    50.30    53.14    56.39    60.56    
 65.82    72.61    80.68    90.11    101.04   112.61   125.78   139.42   153.29   166.80   
 150.33   
320741.53 316244.59 309495.29 301471.32 292651.94 283184.59 272197.63 258882.97 241076.38 219110.05 
 194517.17 172373.27 152173.78 134227.99 117910.30 103849.45 89805.71 78531.43 68843.47 61180.35 
 55084.01 50115.05 45602.96 41337.89 37039.56 32941.04 28895.13 25060.25 21228.26 17776.18 
 15079.94 13205.85 11931.11 11157.88 10388.98 9901.57  9488.47  9102.21  8756.88  8431.55  
 8135.01  7849.47  7593.82  7351.96  7146.78  6946.29  6753.79  6587.61  6418.46  6236.55  
 6047.89  5856.29  5665.85  5500.05  5317.40  5124.66  4928.65  4733.80  4536.18  4329.39  
 4122.53  3908.29  3706.12  3501.68  3300.40  3100.35  2899.90  2699.05  2503.77  2305.75  
 2120.44  1953.52  1790.77  1632.38  1484.74  1345.95  1215.58  1108.18  1000.98  912.30   
 835.67   767.37   704.53   651.81   605.73   565.06   526.80   496.04   472.84   451.46   
 430.35   410.91   393.63   378.42   365.50   353.78   343.58   334.42   326.81   319.00   
 311.87   305.74   300.08   294.81   289.97   285.39   281.34   277.41   274.00   270.08   
 266.62   263.04   260.18   257.29   254.14   251.21   248.19   245.22   242.32   239.26   
 235.64   232.06   228.47   224.93   221.40   217.98   214.28   210.22   206.52   202.55   
 198.45   194.65   190.21   185.81   181.36   177.04   172.77   168.45   163.84   159.00   
 154.23   149.35   144.94   140.28   135.75   131.26   123.05   114.82   107.65   98.99    
 93.87    88.80    79.93    76.76    74.78    69.86    38.75    33.32    32.51    32.73    
 34.39    36.37    38.91    41.63    44.38    47.17    49.86    52.49    55.39    58.58    
 62.52    67.39    73.38    80.76    89.51    100.01   112.85   127.45   143.02   158.65   
 150.33   
320741.53 316431.02 309636.39 301615.91 292674.65 282088.91 268286.25 244760.38 221234.50 197671.19 
 170600.99 147248.78 128369.57 113118.31 100591.47 89917.58 80614.59 72647.74 65741.14 59736.15 
 53844.21 47947.27 41945.03 35640.14 29621.55 24991.91 20389.14 18039.02 16554.68 15415.81 
 14521.09 13723.51 13095.66 12540.21 11992.08 11458.48 10945.40 10489.46 10098.24 9708.37  
 9332.08  8993.81  8677.07  8378.41  8097.52  7806.02  7524.85  7243.87  6979.88  6742.82  
 6500.12  6282.94  6075.88  5884.90  5703.39  5526.63  5347.73  5154.78  4949.14  4744.86  
 4555.14  4354.50  4137.38  3902.89  3676.04  3436.73  3206.36  2993.49  2782.19  2570.89  
 2359.73  2161.06  1980.86  1811.87  1644.07  1499.88  1371.11  1252.16  1144.00  1046.87  
 961.49   879.19   808.13   747.04   694.45   645.09   601.39   565.69   536.08   511.84   
 489.52   467.01   446.29   428.33   413.40   400.98   391.61   383.50   376.78   371.08   
 366.20   362.23   359.08   356.15   354.04   352.48   350.88   349.24   347.82   346.74   
 345.79   344.74   343.32   341.97   339.88   336.80   332.38   327.97   323.11   317.27   
 311.14   304.57   297.91   291.43   285.29   279.23   273.18   267.43   261.81   255.96   
 249.83   244.35   238.00   231.67   226.46   220.94   215.52   209.05   201.64   193.64   
 184.41   177.44   171.63   166.35   162.57   159.61   156.74   152.01   148.63   144.02   
 140.02   135.54   125.06   120.24   115.90   110.30   103.27   95.67    88.05    82.37    
 51.28    38.87    40.22    41.88    44.32    47.94    51.63    55.34    58.87    62.11    
 65.28    68.54    72.27    76.78    82.67    90.48    100.88   114.35   129.56   145.90   
 150.33   
320741.53 315986.33 308401.08 299449.43 289024.54 275344.02 256238.20 231358.51 202517.04 172652.22 
 145818.45 125527.75 113209.68 100957.88 88706.07 80851.46 74135.20 68236.48 62519.24 56504.00 
 49200.20 41608.46 34179.97 27798.86 23838.73 21659.52 20367.21 19423.94 18602.82 17877.51 
 17239.85 16689.78 16136.57 15591.21 14982.78 14354.07 13748.89 13128.11 12477.37 11789.17 
 11254.60 10721.54 10214.90 9758.10  9306.95  8868.24  8472.86  8107.06  7754.71  7435.70  
 7128.59  6855.49  6613.50  6420.18  6258.90  6123.10  6083.94  6064.81  6092.68  5995.61  
 5829.49  5527.89  5223.27  4879.87  4539.29  4218.73  3868.76  3556.93  3219.42  2919.72  
 2666.36  2451.01  2238.93  2047.87  1873.40  1722.67  1579.36  1446.12  1322.57  1216.69  
 1118.99  1033.32  947.74   877.57   814.72   756.94   706.87   660.87   626.01   595.74   
 568.43   541.54   514.61   491.42   471.54   454.15   439.75   429.02   420.10   413.43   
 408.51   404.94   402.49   400.84   399.53   398.96   399.00   398.57   397.36   395.37   
 393.33   392.32   391.75   391.10   389.98   388.11   385.69   382.23   377.98   372.30   
 365.92   358.76   350.86   342.14   333.36   324.41   315.59   307.08   298.89   291.15   
 283.76   276.25   268.77   261.73   254.91   248.31   230.50   222.77   217.71   213.49   
 208.04   202.01   196.23   190.32   184.24   178.77   172.99   166.48   161.52   156.86   
 152.26   148.44   144.75   141.23   135.17   128.87   123.62   119.12   110.67   97.72    
 91.67    83.77    47.18    46.09    49.49    52.70    56.86    61.54    66.03    70.21    
 73.65    76.67    79.34    81.99    85.14    89.97    97.21    107.62   121.11   137.28   
 150.33   
320741.53 316513.27 309300.13 300129.49 289008.31 273194.45 248146.97 223028.39 192375.47 161409.09 
 136052.76 118134.45 104688.24 94303.77 86213.20 79567.14 73949.17 68539.37 63049.30 56512.06 
 48746.01 40426.68 32846.69 27533.65 25429.33 23338.67 22415.82 21681.19 21068.37 20542.12 
 20034.47 19529.32 18973.81 18313.99 17561.38 16779.41 15914.22 15015.91 14158.14 13346.11 
 12613.14 11936.21 11284.80 10684.13 10110.73 9615.23  9176.39  8758.93  8355.51  7990.69  
 7676.30  7398.74  7156.97  6933.06  6757.29  6763.43  7074.31  7246.75  7422.42  7457.20  
 7146.18  6814.83  6325.48  5860.96  5400.95  5024.47  4520.14  4118.84  3694.16  3326.47  
 3009.71  2770.73  2531.74  2293.31  2100.04  1924.63  1760.93  1617.31  1481.01  1363.20  
 1253.17  1149.21  1055.90  975.15   903.41   836.69   776.33   723.26   678.27   642.95   
 609.76   580.65   550.87   523.44   497.53   476.78   458.52   443.27   431.30   421.17   
 413.75   408.62   404.80   402.50   400.90   399.63   398.51   397.89   396.87   394.17   
 390.76   386.46   383.33   380.80   378.36   375.87   372.91   369.59   365.70   360.85   
 354.71   347.87   340.76   333.22   325.16   317.10   308.87   300.99   293.54   286.27   
 279.25   272.21   265.29   258.32   251.52   245.20   233.97   222.76   213.44   208.47   
 203.63   198.98   194.11   189.09   184.09   178.86   174.03   169.38   164.89   160.43   
 156.11   152.35   149.70   147.15   144.80   142.04   138.98   135.55   131.30   119.60   
 109.45   104.37   80.33    52.35    55.58    58.71    63.12    68.42    73.79    78.83    
 83.19    86.74    89.50    91.54    93.19    95.42    99.44    106.54   117.30   132.15   
 150.33   
320741.53 316237.48 308755.62 299617.16 288155.56 271581.63 248526.34 219682.87 187841.74 158081.12 
 134585.82 117234.35 106588.74 95998.84 88466.76 81925.97 76454.57 71281.90 66203.50 60192.27 
 52797.16 44697.75 36612.04 30196.91 26357.77 24469.47 23408.42 22737.61 22183.00 21712.94 
 21307.26 20858.47 20222.45 19513.18 18668.08 17738.29 16779.96 15797.53 14841.40 13970.23 
 13159.49 12389.06 11728.56 11069.08 10409.60 9857.76  9372.16  8933.08  8510.52  8139.73  
 7784.82  7483.02  7238.93  6997.80  6781.27  6622.60  6652.69  6820.29  6864.80  6851.02  
 6677.41  6325.14  6015.70  5592.33  5227.47  4869.21  4503.35  4092.69  3701.79  3359.05  
 3063.50  2829.65  2605.76  2366.43  2164.00  1981.26  1810.79  1659.77  1517.79  1391.62  
 1280.90  1185.78  1090.78  995.78   921.55   855.50   792.79   738.39   691.00   652.62   
 619.88   589.78   561.57   534.51   508.72   485.96   466.18   449.74   435.79   424.22   
 414.92   406.46   399.88   394.66   389.84   385.20   380.70   376.71   371.99   366.35   
 360.23   354.45   349.06   344.11   339.25   334.43   329.40   324.34   318.78   312.70   
 306.14   300.01   293.88   287.80   281.76   275.80   269.94   264.03   258.48   253.09   
 247.84   242.63   237.03   231.69   226.61   221.40   211.85   203.65   199.46   195.13   
 190.81   186.60   182.75   178.72   174.52   169.97   165.81   161.52   157.36   153.94   
 149.96   147.07   143.62   140.73   135.58   131.72   128.07   124.41   119.37   110.13   
 106.18   91.40    56.57    58.69    62.22    66.59    72.18    78.15    83.73    88.80    
 93.00    96.55    99.26    101.09   102.50   104.11   106.93   111.91   119.50   130.29   
 150.33   
320741.53 317289.40 311304.17 303227.73 293357.39 279938.23 262652.46 238472.55 214259.61 186869.47 
 162085.16 141871.47 125972.59 113223.85 102062.58 93269.68 85933.87 79380.06 73676.97 67982.55 
 62391.14 55935.21 48715.12 41172.82 34025.09 28340.35 25256.12 22192.04 20781.82 19856.15 
 19132.86 18508.62 17926.44 17387.78 16841.41 16219.36 15540.40 14790.07 14040.87 13318.93 
 12617.41 11906.15 11275.97 10706.63 10199.09 9694.92  9204.10  8751.65  8338.68  7956.27  
 7599.89  7261.64  6956.61  6696.53  6469.83  6257.99  6076.49  5901.43  5724.76  5548.60  
 5380.50  5178.07  4938.21  4702.54  4448.26  4196.85  3938.44  3667.69  3413.52  3161.15  
 2926.39  2713.79  2501.36  2302.79  2117.60  1936.34  1757.63  1607.74  1469.58  1343.51  
 1225.90  1118.58  1026.34  942.56   865.69   799.27   740.16   688.37   641.52   600.99   
 569.68   543.87   519.63   496.04   472.08   450.94   432.11   414.75   400.09   387.20   
 376.23   366.66   357.75   349.72   342.00   335.01   328.21   321.57   314.94   308.59   
 302.36   296.65   291.30   286.20   281.33   276.41   271.62   266.96   262.09   257.39   
 252.61   247.34   242.19   237.05   231.91   227.53   223.32   219.26   215.76   211.52   
 207.61   203.71   199.93   196.40   191.99   188.64   184.77   181.17   177.78   174.10   
 170.47   166.22   161.43   155.61   150.05   143.34   137.88   133.93   131.78   130.06   
 127.84   128.26   121.95   117.22   113.21   108.41   103.11   97.95    96.07    85.55    
 55.10    54.80    58.13    61.97    67.11    73.16    79.16    84.96    90.32    95.12    
 99.26    102.75   105.54   107.88   110.17   112.75   116.32   121.39   127.98   135.88   
 150.33   
320741.53 317849.02 312682.20 305728.71 297997.54 288837.94 276754.90 262436.45 245648.71 226188.73 
 204897.78 182948.22 162117.93 144270.45 129461.44 118324.80 107215.98 96107.16 87453.67 79633.93 
 72443.49 65680.04 59658.71 53700.00 47801.97 41988.76 36312.80 30921.79 25927.00 21725.87 
 18747.36 16690.80 15304.58 14277.42 13486.13 12793.18 12253.61 11785.25 11317.44 10908.15 
 10484.01 10105.65 9725.29  9352.22  9002.41  8662.15  8347.62  8055.69  7770.04  7510.92  
 7259.20  7002.37  6753.22  6518.78  6312.13  6118.74  5926.69  5722.85  5510.37  5292.11  
 5059.15  4831.58  4597.35  4372.39  4148.74  3927.55  3701.90  3480.28  3270.90  3057.56  
 2850.29  2649.58  2434.44  2236.49  2056.58  1883.76  1727.68  1578.66  1434.59  1296.67  
 1188.14  1079.86  971.57   885.71   814.31   751.23   692.56   642.30   597.76   560.67   
 527.46   502.04   478.52   455.76   433.19   411.72   392.18   375.97   361.86   348.73   
 336.09   325.25   314.69   305.67   296.52   287.91   279.88   272.72   266.52   259.86   
 253.49   248.31   243.41   237.80   232.76   228.47   224.58   220.66   216.64   212.62   
 208.95   205.02   201.61   197.99   194.46   191.27   188.35   184.96   181.48   178.38   
 175.24   172.54   169.28   165.35   161.69   158.33   155.01   151.39   147.42   143.53   
 139.78   134.85   129.44   124.03   118.74   113.23   108.19   102.45   97.05    92.49    
 85.83    79.92    72.67    68.56    67.19    44.56    38.67    40.37    44.75    49.49    
 53.34    58.46    63.81    69.21    74.43    79.60    84.48    89.14    93.53    97.56    
 100.72   104.01   107.37   110.80   114.63   119.27   124.64   130.98   137.80   145.14   
 150.33   
320741.53 319907.66 317129.49 312818.25 307815.71 302051.12 296282.46 290172.24 282420.44 272772.50 
 260536.36 242983.47 225399.17 205039.37 185049.67 166875.94 150031.88 134745.23 120313.41 106944.91 
 94144.42 82316.15 71702.11 63129.11 56243.05 50950.04 46423.47 42621.87 39101.18 35615.57 
 32366.85 29095.42 26035.53 22978.24 20160.70 17550.90 15152.21 13114.27 11541.11 10362.16 
 9522.71  8934.60  8508.44  8189.70  7907.23  7667.80  7457.43  7262.87  7064.68  6868.79  
 6694.64  6538.14  6396.12  6242.36  6091.71  5927.96  5757.10  5568.23  5368.71  5162.85  
 4936.64  4707.41  4464.44  4226.82  3995.71  3782.69  3569.73  3362.44  3152.85  2955.19  
 2770.35  2585.52  2400.69  2216.28  2038.52  1878.61  1728.55  1586.63  1450.63  1320.46  
 1197.94  1086.15  986.14   894.59   811.22   738.61   679.86   631.91   588.41   551.45   
 519.37   489.13   466.77   444.19   421.89   400.81   382.22   364.54   348.73   333.51   
 319.27   305.91   293.91   282.10   271.13   260.92   252.10   242.84   233.59   226.10   
 219.16   212.81   206.95   201.23   195.51   190.36   185.59   181.04   176.90   172.57   
 168.45   163.86   160.00   156.29   152.02   147.89   143.74   139.79   135.63   131.24   
 126.84   122.65   117.88   113.42   109.19   104.86   100.74   95.61    90.97    86.11    
 81.16    75.45    68.94    62.15    55.15    48.94    43.24    24.71    17.46    16.75    
 18.84    21.66    24.80    28.32    32.06    36.13    40.45    45.00    49.78    54.59    
 59.42    64.20    68.84    73.39    77.73    81.94    86.03    90.05    93.93    97.78    
 101.53   105.33   109.51   114.04   119.08   124.78   131.15   138.24   145.76   153.62   
 150.33   
320741.53 321567.16 320767.59 318866.55 316029.61 312670.48 309177.78 305200.87 300655.79 294776.83 
 286348.73 276407.66 263996.07 249951.87 233838.71 216257.86 198070.24 179708.07 160861.31 141567.18 
 121262.40 102232.30 83213.67 69113.25 59226.06 52426.09 47229.63 43068.11 39574.19 36408.50 
 33410.83 30631.95 27963.70 25356.81 22806.80 20410.27 18123.76 15971.05 14054.28 12455.62 
 11197.44 9942.57  9045.34  8341.90  7820.10  7379.87  7030.94  6740.73  6502.86  6297.25  
 6105.47  5916.13  5736.19  5557.97  5386.70  5199.17  4993.14  4777.15  4550.47  4307.77  
 4053.51  3814.12  3590.89  3380.06  3188.91  3003.65  2821.31  2650.82  2486.55  2325.61  
 2176.12  2033.67  1891.25  1752.51  1624.41  1503.76  1392.14  1282.65  1187.44  1092.35  
 997.27   911.76   830.99   756.66   689.59   628.87   572.82   526.12   484.73   447.82   
 416.98   387.72   360.98   342.35   322.33   304.11   286.08   270.99   258.73   246.46   
 232.07   220.31   208.57   197.88   188.56   175.96   166.92   159.64   152.19   143.78   
 136.99   130.43   123.87   117.31   112.26   105.89   100.66   95.22    89.89    84.61    
 79.29    74.34    68.87    63.31    57.93    53.00    47.79    42.43    37.02    31.28    
 25.54    20.06    15.66    10.54    7.39     6.09     5.91     6.38     6.95     7.66     
 8.50     9.45     10.53    11.73    13.16    14.75    16.50    18.41    20.61    23.04    
 25.66    28.44    31.45    34.74    38.20    41.76    45.55    49.49    53.53    57.67    
 61.85    66.05    70.24    74.44    78.56    82.68    86.86    91.11    95.44    99.88    
 104.43   109.30   114.46   119.87   125.76   132.47   139.41   147.05   154.99   163.55   
 150.33   
320741.53 323413.61 324718.14 324925.11 323882.57 322019.70 319294.46 314936.89 307933.24 298309.63 
 287302.99 275816.76 262663.08 248756.21 233990.50 217436.26 199171.98 179065.56 156658.18 133681.76 
 113634.18 95997.74 78389.18 65698.83 55462.84 47309.00 40966.82 35724.70 31829.20 28270.95 
 25307.04 22771.05 20433.13 18414.11 16391.02 14483.73 12608.63 11166.18 9728.29  8290.40  
 7267.58  6485.45  5899.48  5439.51  5065.54  4750.50  4452.56  4214.35  4053.18  3924.96  
 3779.04  3622.38  3415.13  3181.44  2934.52  2684.32  2461.49  2266.76  2085.28  1913.34  
 1754.04  1600.38  1453.79  1322.54  1197.35  1087.49  985.20   883.00   792.41   705.96   
 628.28   554.74   490.58   430.93   377.74   330.39   286.74   248.52   215.17   186.34   
 160.35   137.47   119.95   102.48   85.01    72.24    61.74    51.87    24.74    9.51     
 5.43     3.58     3.08     2.95     2.94     2.95     3.00     3.07     3.15     3.23     
 3.33     3.44     3.56     3.69     3.83     3.99     4.16     4.33     4.53     4.73     
 4.94     5.17     5.40     5.65     5.90     6.17     6.44     6.71     7.01     7.32     
 7.62     7.95     8.31     8.68     9.08     9.51     9.98     10.51    11.12    11.79    
 12.54    13.37    14.32    15.34    16.53    17.85    19.37    21.07    23.04    25.26    
 27.85    30.93    34.42    38.48    43.11    48.37    54.16    60.52    67.39    74.99    
 83.13    91.57    100.19   108.86   117.61   126.68   135.71   144.42   152.97   161.48   
 169.64   177.39   184.77   191.75   198.16   203.98   209.16   213.67   217.41   220.30   
 222.29   223.38   223.41   222.49   220.55   217.59   213.52   208.56   202.66   195.99   
 150.33   
320741.53 323795.55 325434.51 325696.96 324548.71 322498.69 319808.21 315296.76 307741.38 296330.22 
 283377.85 267857.32 243554.05 219250.82 194925.87 168211.85 144460.45 124933.86 108916.82 91804.41 
 74375.31 58366.62 46019.62 36848.97 30127.31 24190.64 18278.99 15101.65 12757.47 11070.23 
 9454.69  8139.22  6171.74  5064.70  4292.93  3606.48  2878.10  2152.80  1766.61  1470.37  
 1160.67  894.94   732.86   618.47   529.89   445.12   369.47   301.18   252.07   203.12   
 171.52   143.77   125.29   110.42   97.22    82.71    72.64    64.64    57.44    52.19    
 47.63    43.42    39.60    36.61    34.21    32.26    30.51    28.80    26.71    24.90    
 23.68    23.07    22.85    22.93    23.13    23.48    23.79    23.71    23.71    23.64    
 23.38    22.69    21.44    19.42    15.86    10.78    6.03     2.38     2.24     2.29     
 2.37     2.45     2.54     2.64     2.76     2.88     3.01     3.15     3.31     3.48     
 3.66     3.84     4.04     4.25     4.48     4.71     4.96     5.21     5.47     5.74     
 6.03     6.34     6.65     6.94     7.25     7.58     7.94     8.31     8.68     9.05     
 9.44     9.87     10.35    10.84    11.34    11.88    12.48    13.15    13.85    14.64    
 15.51    16.51    17.60    18.78    20.07    21.54    23.21    25.07    27.15    29.56    
 32.42    35.68    39.38    43.58    48.39    53.76    59.68    66.17    73.16    80.77    
 88.69    97.08    105.48   114.26   123.11   131.95   140.78   149.28   157.81   166.06   
 174.10   181.74   188.99   195.94   202.27   208.06   213.36   218.05   221.91   225.00   
 227.15   228.27   228.21   226.89   224.34   220.61   215.54   209.36   202.09   194.02   
 150.33   
320741.53 323436.05 324322.07 322889.06 319794.25 314863.18 305932.91 280689.40 255204.98 228591.27 
 200562.43 170920.52 144142.96 117904.15 93741.93 69601.82 59675.62 45953.78 31975.74 26522.43 
 19388.20 12318.17 8405.91  4529.91  2074.74  1592.47  1325.49  1063.34  801.22   539.10   
 390.56   293.05   240.12   208.10   183.40   163.21   141.99   124.94   112.22   99.55    
 88.49    79.29    70.15    62.74    56.69    51.91    47.17    43.76    40.06    36.61    
 33.49    30.15    26.45    22.94    19.62    17.13    15.38    13.89    12.84    12.05    
 11.52    11.11    10.73    10.39    9.99     9.61     9.34     9.15     8.93     8.70     
 8.55     8.36     8.21     8.05     7.74     7.50     7.26     6.90     6.42     5.83     
 5.28     4.72     4.06     3.42     2.85     2.65     2.63     2.65     2.73     2.82     
 2.92     3.04     3.16     3.31     3.47     3.64     3.84     4.04     4.24     4.45     
 4.68     4.93     5.17     5.42     5.69     5.97     6.26     6.56     6.85     7.16     
 7.48     7.81     8.15     8.50     8.86     9.21     9.57     9.95     10.34    10.75    
 11.18    11.61    12.08    12.56    13.08    13.66    14.30    15.03    15.80    16.67    
 17.60    18.61    19.76    21.05    22.48    24.06    25.83    27.82    30.02    32.59    
 35.51    38.92    42.82    47.28    52.20    57.71    63.72    70.52    78.01    85.99    
 94.45    103.26   112.60   122.21   131.93   141.73   151.55   161.18   170.57   179.55   
 187.97   195.85   203.26   209.93   215.81   221.12   225.73   229.63   232.78   236.82   
 237.84   238.23   237.51   235.30   231.37   226.48   219.97   212.09   202.82   192.65   
 150.33   
320741.53 323450.38 323580.02 320424.49 313870.13 287611.62 255105.15 222598.72 190098.57 158375.67 
 118666.89 91287.24 74112.89 47807.94 37429.38 27050.83 16723.55 11800.57 6877.58  1990.00  
 1857.76  1463.34  1156.12  955.53   743.10   561.34   423.58   333.99   264.85   195.90   
 145.89   118.11   100.17   86.49    75.74    67.46    61.52    56.41    50.70    46.24    
 42.34    38.56    34.49    30.92    26.67    23.28    20.34    18.21    16.51    15.17    
 14.06    13.16    12.31    11.52    10.71    9.79     9.12     8.51     8.07     7.71     
 7.33     6.89     6.52     6.21     5.91     5.67     5.43     5.20     4.89     4.72     
 4.56     4.42     4.26     4.08     3.88     3.67     3.49     3.34     3.19     3.07     
 2.94     2.80     2.73     2.73     2.75     2.81     2.88     2.97     3.05     3.15     
 3.26     3.37     3.48     3.61     3.76     3.92     4.09     4.27     4.47     4.68     
 4.88     5.11     5.34     5.57     5.83     6.10     6.37     6.66     6.97     7.26     
 7.57     7.91     8.26     8.61     8.97     9.33     9.71     10.11    10.49    10.89    
 11.32    11.78    12.27    12.76    13.26    13.79    14.40    15.08    15.83    16.66    
 17.63    18.68    19.87    21.19    22.70    24.34    26.20    28.30    30.56    33.10    
 36.01    39.29    42.96    47.11    51.89    57.27    63.27    70.00    77.35    85.59    
 94.39    104.03   113.94   125.30   136.66   148.23   159.97   171.58   183.18   194.18   
 204.49   213.85   222.34   229.80   236.00   241.20   245.00   248.31   250.15   250.53   
 249.79   247.92   245.15   241.25   235.89   229.36   221.10   211.62   200.65   188.76   
 150.33   
320741.53 322671.01 321200.85 315417.30 291025.17 248147.02 208921.85 170097.79 123952.31 96005.73 
 68277.14 42735.16 29095.11 17876.71 12307.28 6797.87  1288.47  972.97   723.62   728.76   
 613.35   504.71   435.58   365.20   311.00   260.33   234.59   175.55   138.89   115.25   
 91.78    76.92    66.76    59.12    52.96    48.00    43.94    39.20    34.79    29.58    
 26.33    24.97    22.87    20.48    18.70    16.73    15.48    14.24    12.90    12.07    
 11.39    10.23    9.20     8.39     7.31     6.68     6.46     6.37     6.23     6.01     
 5.73     5.48     5.26     4.95     4.67     4.42     4.21     4.04     3.84     3.65     
 3.45     3.29     3.16     3.05     2.96     2.89     2.83     2.77     2.72     2.67     
 2.65     2.64     2.64     2.66     2.73     2.80     2.87     2.96     3.06     3.17     
 3.28     3.41     3.54     3.68     3.82     3.98     4.16     4.35     4.55     4.76     
 4.99     5.25     5.50     5.75     6.04     6.34     6.65     6.96     7.27     7.60     
 7.95     8.30     8.67     9.05     9.46     9.85     10.26    10.68    11.12    11.56    
 12.01    12.46    12.94    13.43    13.92    14.42    14.96    15.55    16.17    16.85    
 17.61    18.50    19.50    20.64    22.02    23.60    25.42    27.47    29.72    32.24    
 35.04    38.24    41.89    46.03    50.62    55.88    61.75    68.36    75.80    84.20    
 93.51    103.50   114.19   125.63   138.12   151.09   164.34   177.64   191.14   204.72   
 217.35   228.87   239.07   249.26   256.17   261.38   264.73   266.35   266.37   265.05   
 262.38   257.86   252.08   244.76   236.81   227.32   216.39   205.15   192.41   178.12   
 150.33   
320741.53 322505.25 320868.52 313991.05 273396.87 232802.67 192154.40 145949.76 96121.49 71938.04 
 41757.09 28605.68 15532.58 11678.58 7824.57  3970.57  152.36   106.37   75.79    62.81    
 53.78    45.88    39.39    34.75    30.77    27.14    24.33    22.18    20.74    19.52    
 19.08    18.50    17.99    17.30    15.97    13.63    11.67    10.46    9.49     8.54     
 7.77     7.23     7.10     7.89     8.32     8.27     8.21     7.97     7.63     7.27     
 6.86     6.65     6.39     6.10     5.88     5.59     5.40     5.23     5.05     4.86     
 4.68     4.53     4.29     4.16     4.05     3.89     3.74     3.66     3.55     3.43     
 3.30     3.22     3.16     3.04     2.96     2.92     2.89     2.86     2.85     2.87     
 2.88     2.89     2.91     2.95     2.99     3.04     3.11     3.17     3.23     3.32     
 3.41     3.49     3.57     3.66     3.78     3.92     4.08     4.27     4.47     4.70     
 4.93     5.19     5.47     5.77     6.11     6.44     6.78     7.13     7.48     7.83     
 8.17     8.53     8.88     9.25     9.60     10.00    10.41    10.85    11.29    11.78    
 12.28    12.79    13.33    13.88    14.42    15.00    15.61    16.25    16.91    17.59    
 18.32    19.09    19.92    20.82    21.86    23.06    24.53    26.22    28.19    30.46    
 33.13    36.08    39.41    43.18    47.41    52.35    57.86    64.06    71.14    79.43    
 88.89    99.44    110.84   124.37   137.91   152.43   167.33   182.41   198.30   213.59   
 228.70   242.89   255.52   266.44   274.89   281.03   284.66   285.86   284.84   281.74   
 276.82   270.68   262.84   252.80   241.75   229.80   216.71   202.93   188.24   172.41   
 150.33   
320741.53 321735.86 319256.43 311838.06 277520.85 230122.39 185226.91 135708.70 103591.55 71686.86 
 39782.17 21314.09 11988.49 8157.48  4385.37  613.26   488.86   331.60   141.17   93.15    
 46.88    34.81    27.55    22.38    18.79    16.22    14.08    12.47    11.28    10.24    
 9.56     9.83     10.03    10.06    9.45     8.77     8.28     7.31     6.50     5.81     
 5.57     5.43     5.11     4.95     4.70     4.55     4.57     4.66     4.38     4.02     
 3.89     3.79     3.78     3.78     3.88     4.00     3.90     3.81     3.73     3.73     
 3.73     3.74     3.74     3.74     3.73     3.72     3.70     3.68     3.66     3.65     
 3.64     3.63     3.62     3.62     3.60     3.60     3.60     3.60     3.59     3.58     
 3.58     3.58     3.58     3.63     3.86     4.09     4.21     4.33     4.38     4.43     
 4.48     4.55     4.62     4.63     4.63     4.67     4.77     4.89     5.06     5.27     
 5.49     5.75     6.05     6.39     6.75     7.12     7.49     7.86     8.23     8.58     
 8.92     9.25     9.57     9.90     10.24    10.61    11.03    11.46    11.94    12.44    
 12.95    13.51    14.09    14.71    15.35    16.01    16.71    17.47    18.25    19.06    
 19.89    20.75    21.64    22.58    23.56    24.63    25.95    27.55    29.48    31.67    
 34.22    37.09    40.35    44.13    48.39    53.20    58.70    64.94    71.93    80.58    
 90.68    102.10   114.76   128.40   142.75   157.69   174.15   190.63   206.78   222.33   
 238.32   254.31   267.15   277.99   286.34   291.47   293.82   293.20   289.92   284.62   
 277.15   268.19   257.84   246.81   234.93   222.65   210.10   197.12   182.89   167.18   
 150.33   
