IESNA:LM-63-2002
[TEST] 1
[TESTLAB] AOK
[TESTDATE] 2022-05-16
[ISSUEDATE] 2022-05-16 08:46:28
[NEARFIELD] 
[LAMPPOSITION] 0,0
[OTHER] EVERFINE GO-2000A_V1 SYSTEM
[MANUFAC] AOK
[LUMCAT] A
[LUMINAIRE] AOK-400WiSF-HVY-S5-00-5070-3585D-P
[LAMPCAT] B
[LAMP] 5050
[BALLAST] E
[BALLASTCAT] F
[OTHER] 
[OTHER] Gamma(deg)    Fz(lm)      Ft(lm)     %Lum    %Lamp
[OTHER]   0- 10      4234.74     4234.74     7.95     7.95
[OTHER]  10- 20      8902.92    13137.66    24.65    24.65
[OTHER]  20- 30     10236.31    23373.97    43.86    43.86
[OTHER]  30- 40     10075.03    33449.00    62.76    62.76
[OTHER]  40- 50      8301.53    41750.53    78.33    78.33
[OTHER]  50- 60      5907.78    47658.31    89.42    89.42
[OTHER]  60- 70      3329.35    50987.66    95.67    95.67
[OTHER]  70- 80      1373.22    52360.88    98.24    98.24
[OTHER]  80- 90       433.38    52794.27    99.05    99.05
[OTHER]  90-100       173.42    52967.69    99.38    99.38
[OTHER] 100-110        92.86    53060.54    99.55    99.55
[OTHER] 110-120        67.34    53127.88    99.68    99.68
[OTHER] 120-130        52.49    53180.37    99.78    99.78
[OTHER] 130-140        41.13    53221.50    99.86    99.86
[OTHER] 140-150        32.20    53253.70    99.92    99.92
[OTHER] 150-160        24.29    53277.99    99.96    99.96
[OTHER] 160-170        14.89    53292.88    99.99    99.99
[OTHER] 170-180         5.23    53298.11   100.00   100.00
[OTHER] 
TILT=NONE
1 53298 1 181 25 1 2 0.150 0.200 0.000
1.000 1 397.606
0.0    1.0    2.0    3.0    4.0    5.0    6.0    7.0    8.0    9.0    
 10.0   11.0   12.0   13.0   14.0   15.0   16.0   17.0   18.0   19.0   
 20.0   21.0   22.0   23.0   24.0   25.0   26.0   27.0   28.0   29.0   
 30.0   31.0   32.0   33.0   34.0   35.0   36.0   37.0   38.0   39.0   
 40.0   41.0   42.0   43.0   44.0   45.0   46.0   47.0   48.0   49.0   
 50.0   51.0   52.0   53.0   54.0   55.0   56.0   57.0   58.0   59.0   
 60.0   61.0   62.0   63.0   64.0   65.0   66.0   67.0   68.0   69.0   
 70.0   71.0   72.0   73.0   74.0   75.0   76.0   77.0   78.0   79.0   
 80.0   81.0   82.0   83.0   84.0   85.0   86.0   87.0   88.0   89.0   
 90.0   91.0   92.0   93.0   94.0   95.0   96.0   97.0   98.0   99.0   
 100.0  101.0  102.0  103.0  104.0  105.0  106.0  107.0  108.0  109.0  
 110.0  111.0  112.0  113.0  114.0  115.0  116.0  117.0  118.0  119.0  
 120.0  121.0  122.0  123.0  124.0  125.0  126.0  127.0  128.0  129.0  
 130.0  131.0  132.0  133.0  134.0  135.0  136.0  137.0  138.0  139.0  
 140.0  141.0  142.0  143.0  144.0  145.0  146.0  147.0  148.0  149.0  
 150.0  151.0  152.0  153.0  154.0  155.0  156.0  157.0  158.0  159.0  
 160.0  161.0  162.0  163.0  164.0  165.0  166.0  167.0  168.0  169.0  
 170.0  171.0  172.0  173.0  174.0  175.0  176.0  177.0  178.0  179.0  
 180.0  
0.0    15.0   30.0   45.0   60.0   75.0   90.0   105.0  120.0  135.0  
 150.0  165.0  180.0  195.0  210.0  225.0  240.0  255.0  270.0  285.0  
 300.0  315.0  330.0  345.0  360.0  
46859.91 44453.68 43176.33 42438.09 38733.63 32949.23 28535.77 24203.22 18807.46 15345.26 
 11530.39 7711.14  3891.89  1998.84  126.82   71.74    35.61    25.81    20.06    16.61    
 14.43    12.53    11.02    10.20    9.50     8.89     8.21     7.66     7.20     6.93     
 6.90     6.71     6.28     5.67     5.16     4.99     4.87     4.85     4.63     4.61     
 4.58     4.49     4.23     4.13     4.10     4.09     4.09     4.06     3.96     3.83     
 3.75     3.67     3.61     3.52     3.46     3.36     3.24     3.14     3.07     2.98     
 2.93     2.92     2.89     2.83     2.76     2.68     2.61     2.54     2.49     2.44     
 2.42     2.39     2.36     2.34     2.32     2.33     2.34     2.35     2.36     2.37     
 2.43     2.50     2.57     2.67     2.84     3.00     3.14     3.26     3.39     3.52     
 3.67     3.83     4.01     4.19     4.37     4.56     4.78     5.02     5.30     5.63     
 6.00     6.41     6.84     7.32     7.82     8.36     8.92     9.52     10.13    10.77    
 11.43    12.12    12.84    13.57    14.32    15.09    15.87    16.69    17.54    18.43    
 19.38    20.36    21.43    22.54    23.73    24.95    26.27    27.64    29.06    30.43    
 31.89    33.40    34.91    36.41    37.92    39.41    40.93    42.43    43.94    45.42    
 46.89    48.43    50.08    51.81    53.60    55.47    57.42    59.40    61.49    63.71    
 66.01    68.36    70.73    73.11    75.50    77.73    79.80    81.72    83.45    84.96    
 86.27    87.38    88.18    88.63    88.70    88.34    87.58    86.34    84.72    82.70    
 80.41    77.81    75.05    72.15    69.14    66.06    62.97    59.90    56.81    53.44    
 49.83    
46859.91 44509.64 43113.97 42297.26 41252.71 34295.04 30520.31 26370.00 22219.70 18062.10 
 12981.06 10038.46 6781.56  3619.50  484.58   367.55   250.51   134.42   115.07   109.77   
 113.22   83.92    66.82    73.48    72.25    60.93    44.55    38.92    33.41    24.49    
 18.41    15.47    13.62    12.09    10.65    9.17     8.50     8.36     8.03     7.83     
 7.67     7.34     7.08     6.74     6.37     5.95     5.67     5.40     5.12     4.84     
 4.59     4.34     4.08     3.85     3.63     3.41     3.20     3.02     2.88     2.76     
 2.65     2.57     2.48     2.38     2.31     2.26     2.20     2.17     2.15     2.10     
 2.07     2.02     2.00     1.98     1.98     1.98     1.99     2.00     2.02     2.07     
 2.12     2.18     2.25     2.34     2.44     2.54     2.65     2.78     2.91     3.06     
 3.23     3.41     3.59     3.81     4.04     4.30     4.57     4.88     5.22     5.59     
 6.01     6.45     6.94     7.44     7.98     8.52     9.08     9.67     10.29    10.92    
 11.58    12.29    13.02    13.73    14.48    15.26    16.10    16.98    17.88    18.83    
 19.80    20.87    21.97    23.15    24.34    25.58    26.89    28.24    29.62    31.01    
 32.41    33.81    35.22    36.61    37.96    39.32    40.68    42.03    43.35    44.73    
 46.19    47.72    49.30    50.99    52.75    54.56    56.43    58.41    60.47    62.66    
 64.92    67.26    69.54    71.84    74.06    76.12    78.02    79.71    81.26    82.56    
 83.71    84.67    85.32    85.67    85.64    85.18    84.37    83.13    81.52    79.62    
 77.56    75.27    72.96    70.58    68.14    65.65    63.02    60.28    57.30    54.23    
 49.83    
46859.91 44776.26 43398.19 42602.25 42136.82 38459.33 33077.93 29508.73 25958.40 20476.17 
 17320.93 13267.72 10357.63 7460.43  4563.23  967.29   668.02   402.36   266.26   232.36   
 190.53   153.44   148.08   146.66   127.09   107.32   87.54    77.28    79.34    69.34    
 67.93    56.39    52.33    51.31    44.94    45.10    35.48    33.15    34.73    32.66    
 30.42    30.37    33.72    31.65    28.72    28.28    27.09    25.48    21.88    21.41    
 19.25    16.54    12.23    10.24    9.37     8.97     8.30     7.56     6.74     5.89     
 5.10     4.54     4.13     3.85     3.55     3.19     2.85     2.56     2.38     2.23     
 2.13     2.06     2.02     1.99     1.97     1.96     1.94     1.94     1.94     1.94     
 1.98     2.04     2.12     2.23     2.35     2.48     2.63     2.79     2.98     3.19     
 3.41     3.67     3.95     4.26     4.60     4.96     5.38     5.80     6.25     6.71     
 7.20     7.71     8.25     8.80     9.38     10.02    10.67    11.34    12.03    12.76    
 13.53    14.32    15.14    16.01    16.92    17.83    18.79    19.76    20.80    21.89    
 22.99    24.11    25.27    26.44    27.61    28.77    29.93    31.13    32.32    33.50    
 34.69    35.86    37.05    38.27    39.57    40.91    42.28    43.70    45.17    46.71    
 48.35    50.06    51.84    53.65    55.51    57.45    59.49    61.55    63.61    65.71    
 67.84    69.89    71.86    73.66    75.32    76.90    78.36    79.67    80.80    81.79    
 82.60    83.13    83.37    83.32    82.98    82.34    81.45    80.25    78.85    77.37    
 75.69    73.88    72.09    70.06    68.09    65.99    63.93    61.76    59.43    57.10    
 49.83    
46859.91 45315.29 43818.83 42962.75 42353.11 41625.72 39863.93 34315.38 31032.70 27901.84 
 24529.00 21153.61 17486.61 15779.34 11665.73 9543.66  7026.34  4981.18  2936.03  904.10   
 650.60   474.94   378.54   313.88   249.23   184.86   152.57   115.63   91.04    78.59    
 69.13    61.29    56.37    52.07    48.68    45.28    42.44    39.17    36.22    34.06    
 31.52    29.12    26.27    24.21    21.88    20.93    20.22    19.67    18.80    18.06    
 17.13    16.07    14.87    13.48    12.24    11.32    10.58    9.91     9.22     8.56     
 7.94     7.31     6.73     6.25     5.81     5.45     5.10     4.73     4.35     3.98     
 3.61     3.30     3.01     2.78     2.59     2.42     2.28     2.18     2.12     2.12     
 2.13     2.16     2.23     2.35     2.50     2.68     2.89     3.11     3.37     3.64     
 3.96     4.29     4.65     5.03     5.44     5.87     6.35     6.83     7.33     7.86     
 8.39     8.94     9.53     10.16    10.84    11.53    12.24    12.99    13.78    14.58    
 15.41    16.27    17.19    18.10    19.07    20.04    21.06    22.07    23.08    24.10    
 25.16    26.28    27.42    28.54    29.67    30.86    32.06    33.32    34.60    35.90    
 37.24    38.63    40.05    41.48    42.96    44.48    46.06    47.67    49.27    50.93    
 52.68    54.42    56.14    57.91    59.63    61.38    63.11    64.79    66.39    67.96    
 69.47    70.91    72.23    73.50    74.71    75.79    76.72    77.48    78.11    78.59    
 78.90    79.05    79.01    78.75    78.33    77.76    77.09    76.30    75.39    74.37    
 73.30    72.15    70.90    69.60    68.27    66.86    65.34    63.82    62.16    60.46    
 49.83    
46859.91 45860.18 44838.11 43850.41 43028.50 42199.03 40983.35 40403.98 39521.49 36457.17 
 32621.47 30053.03 27649.10 25358.35 23518.81 20830.02 17794.28 15468.46 13954.11 11651.03 
 9845.04  8045.13  6273.50  4972.54  3342.82  1551.53  1207.36  878.39   549.42   409.67   
 311.39   234.73   193.84   166.28   145.29   125.34   110.10   94.90    82.75    71.91    
 63.01    54.72    47.85    42.47    37.82    33.66    29.21    26.33    23.77    21.22    
 19.38    17.79    15.76    13.79    12.54    11.73    11.15    10.54    9.94     9.36     
 8.82     8.30     7.81     7.34     6.92     6.55     6.21     5.91     5.65     5.41     
 5.21     4.99     4.77     4.49     4.26     4.02     3.78     3.54     3.32     3.09     
 2.89     2.72     2.65     2.70     2.87     3.09     3.32     3.58     3.87     4.17     
 4.51     4.88     5.27     5.68     6.14     6.62     7.11     7.64     8.24     8.86     
 9.51     10.19    10.91    11.69    12.49    13.31    14.17    15.07    16.00    16.94    
 17.89    18.89    19.92    20.98    22.08    23.21    24.37    25.54    26.77    28.02    
 29.29    30.60    31.95    33.31    34.69    36.09    37.53    38.99    40.48    41.95    
 43.43    44.93    46.45    47.97    49.47    50.96    52.48    53.99    55.51    56.98    
 58.44    59.86    61.29    62.70    64.08    65.38    66.64    67.81    68.89    69.89    
 70.83    71.65    72.40    73.08    73.70    74.18    74.56    74.87    75.10    75.25    
 75.35    75.36    75.32    75.21    75.07    74.84    74.56    74.24    73.88    73.38    
 72.76    72.10    71.40    70.64    69.86    69.03    68.11    67.09    66.01    64.87    
 49.83    
46859.91 46438.79 46028.96 45593.07 44815.22 43918.11 42961.92 42225.29 41251.07 40381.59 
 39511.24 38535.71 37820.54 37074.04 36250.25 35349.42 34398.15 32966.83 30981.87 28743.15 
 26552.13 24877.14 23471.75 22065.13 20511.74 18768.09 17209.72 16115.83 14264.25 12640.39 
 11129.83 9597.56  8510.72  7408.87  6276.51  5123.44  4275.26  3732.56  3133.51  2534.45  
 1937.24  1526.97  1140.94  896.96   704.18   549.64   375.61   304.02   232.44   161.20   
 127.65   105.09   87.28    72.18    62.21    52.89    45.43    39.80    34.56    30.25    
 26.68    23.79    20.99    18.66    16.76    15.17    13.89    12.15    10.94    10.31    
 9.92     9.59     9.26     8.88     8.56     8.20     7.95     7.67     7.43     7.00     
 6.37     5.48     4.44     3.17     2.45     2.57     2.76     2.97     3.20     3.45     
 3.74     4.04     4.38     4.74     5.15     5.57     6.05     6.54     7.07     7.63     
 8.22     8.83     9.48     10.18    10.93    11.69    12.51    13.37    14.27    15.22    
 16.19    17.21    18.27    19.39    20.49    21.62    22.80    23.97    25.13    26.34    
 27.60    28.93    30.28    31.62    32.94    34.33    35.77    37.23    38.67    40.10    
 41.55    42.98    44.43    45.84    47.25    48.63    50.01    51.37    52.68    54.00    
 55.29    56.52    57.73    58.90    60.04    61.16    62.23    63.25    64.25    65.20    
 66.13    66.99    67.79    68.55    69.27    69.92    70.55    71.10    71.64    72.11    
 72.54    72.94    73.29    73.69    74.04    74.39    74.72    74.95    75.09    75.02    
 74.74    74.42    74.06    73.66    73.20    72.71    72.14    71.44    70.70    69.84    
 49.83    
46859.91 47063.45 47282.88 47482.61 47374.97 47108.38 46663.43 46407.36 45848.12 45336.26 
 44880.05 44359.56 43847.74 43390.42 42776.90 42215.69 41660.18 41237.49 40513.88 39816.33 
 39124.08 38353.06 37743.83 37207.20 36330.56 35611.64 34628.33 33722.59 32915.65 31977.51 
 31143.97 30106.78 29060.72 27938.38 26832.99 25804.50 24818.58 23830.99 22704.05 21635.10 
 20546.39 19568.32 18399.49 17432.83 16330.49 15393.29 14343.61 13406.02 12398.03 11536.45 
 10651.25 9734.94  8871.90  8130.21  7395.27  6679.45  6035.25  5486.47  4900.85  4339.24  
 3843.12  3406.73  3023.74  2676.48  2329.95  2054.54  1790.18  1549.61  1327.90  1142.69  
 972.45   821.08   684.78   571.47   467.38   378.10   314.92   251.75   188.83   148.32   
 112.08   85.10    64.81    49.34    34.27    9.05     4.40     2.17     1.56     1.42     
 1.40     1.30     1.08     1.09     1.12     1.16     1.20     1.25     1.31     1.37     
 1.45     1.52     1.61     1.71     1.81     1.92     2.05     2.19     2.33     2.48     
 2.64     2.81     3.00     3.19     3.40     3.61     3.81     4.03     4.26     4.53     
 4.80     5.09     5.40     5.69     6.00     6.33     6.66     7.01     7.36     7.73     
 8.11     8.50     8.93     9.35     9.77     10.18    10.63    11.10    11.59    12.06    
 12.57    13.11    13.67    14.27    14.87    15.56    16.26    16.97    17.73    18.48    
 19.24    20.01    20.85    21.72    22.65    23.62    24.71    25.92    27.20    28.55    
 29.94    31.40    32.91    34.51    36.14    37.88    39.75    41.51    43.21    44.94    
 46.62    48.29    49.99    51.56    53.07    54.51    55.91    57.14    58.30    59.44    
 49.83    
46859.91 47744.80 48590.65 49367.60 49914.04 50332.51 50537.85 50922.28 51143.34 51451.47 
 51550.89 51596.06 51681.08 51758.38 51730.75 51730.54 51569.57 51431.12 51111.75 50585.24 
 49883.58 49277.03 48510.15 47794.27 46768.37 45848.82 44861.56 43695.38 42448.22 41139.89 
 39907.47 38820.78 37598.45 36399.07 35292.62 34094.21 32931.33 31736.48 30681.42 29515.89 
 28437.81 27481.38 26522.08 25441.89 24449.25 23417.09 22299.93 21355.45 20420.44 19416.91 
 18488.03 17480.69 16484.66 15621.64 14828.34 14015.52 13230.74 12446.20 11736.02 11026.45 
 10316.88 9625.10  8967.07  8333.86  7758.05  7162.35  6589.75  6048.41  5498.34  5002.98  
 4507.24  4063.43  3643.26  3226.60  2856.09  2545.23  2286.37  2019.82  1781.80  1562.00  
 1387.32  1232.22  1100.66  969.29   867.18   771.64   693.69   628.84   567.19   511.10   
 461.18   409.60   361.26   322.45   289.35   259.42   233.12   210.59   191.35   173.46   
 158.61   145.33   132.73   122.66   112.61   104.39   97.49    90.98    85.97    81.20    
 76.88    73.07    69.73    66.11    62.92    59.80    56.64    54.00    51.13    48.71    
 46.06    43.56    41.58    39.05    36.50    33.89    31.26    28.70    25.93    22.86    
 19.06    15.27    12.19    10.06    8.28     7.09     6.74     6.91     7.30     7.72     
 8.14     8.58     9.02     9.46     9.90     10.36    10.80    11.25    11.70    12.18    
 12.68    13.18    13.70    14.24    14.82    15.46    16.16    16.93    17.76    18.73    
 19.75    20.90    22.18    23.53    25.03    26.70    28.53    30.35    32.32    34.30    
 36.33    38.45    40.60    42.68    44.79    46.85    48.84    50.82    52.74    54.73    
 49.83    
46859.91 48320.92 49688.76 51008.51 52346.65 53535.65 54379.49 55285.95 56056.15 56679.41 
 56930.87 57081.27 56831.01 56052.33 54848.25 53421.73 52239.83 50991.91 49933.99 48949.62 
 47818.36 46774.82 45643.21 44563.07 43403.95 42380.69 41269.50 40210.52 39144.05 38122.06 
 37117.83 36010.13 34905.98 33757.12 32571.22 31317.92 30157.60 29029.16 27874.84 26909.98 
 25973.48 25052.61 24133.20 23353.88 22551.51 21809.32 21042.45 20332.10 19637.56 18934.30 
 18217.97 17467.11 16726.17 15932.92 15195.05 14488.41 13799.48 13160.08 12494.80 11780.41 
 11089.68 10432.54 9821.01  9302.55  8824.11  8344.49  7836.44  7268.93  6717.35  6203.28  
 5720.23  5237.78  4770.41  4302.63  3867.23  3381.29  3006.86  2632.43  2259.06  1982.41  
 1702.33  1442.42  1258.23  1082.83  951.47   834.02   751.47   684.74   630.33   584.17   
 535.91   488.95   444.48   405.25   371.61   342.48   315.49   291.64   269.83   252.19   
 234.54   216.95   204.22   192.41   181.65   172.09   163.79   155.96   149.12   143.00   
 137.48   132.58   127.62   122.79   118.48   114.32   110.55   106.60   103.01   99.49    
 96.23    92.90    89.89    86.92    84.07    81.08    78.17    74.99    72.15    69.21    
 66.66    63.84    61.19    58.66    56.17    53.80    51.21    48.42    45.70    42.99    
 40.28    37.27    33.42    31.03    28.43    23.19    21.01    15.80    9.34     8.11     
 7.82     8.16     8.65     9.18     9.71     10.24    10.79    11.38    12.03    12.81    
 13.62    14.45    15.38    16.44    17.61    18.91    20.39    22.02    23.77    25.75    
 27.89    30.08    32.39    34.74    37.28    39.85    42.53    45.23    48.05    50.97    
 49.83    
46859.91 48776.43 50613.69 52462.34 54122.38 55828.55 57359.44 58215.44 58604.07 58358.99 
 56764.88 55347.36 54212.31 53183.93 52192.52 51097.02 50147.87 49093.08 47852.92 46562.90 
 45104.05 43547.43 42001.99 40276.12 38653.06 37203.44 35887.67 34716.65 33547.52 32654.84 
 31977.25 31457.99 31036.41 30627.71 30158.96 29721.79 29292.91 28896.22 28448.79 27823.53 
 27084.33 26311.96 25535.28 24790.64 24046.29 23197.65 22223.74 21200.64 20257.44 19355.01 
 18455.34 17613.33 16823.98 16051.15 15350.64 14638.76 13950.83 13206.95 12462.60 11758.90 
 11055.52 10352.14 9711.35  9078.89  8435.95  7808.35  7194.71  6595.01  5929.56  5259.89  
 4687.03  4213.82  3793.41  3400.26  3022.41  2705.24  2332.97  2041.88  1803.56  1593.76  
 1391.52  1233.68  1094.79  956.05   857.01   772.02   701.15   635.62   586.73   544.28   
 503.69   463.11   423.68   390.69   359.46   332.57   310.66   291.96   275.77   261.45   
 248.68   237.36   227.24   218.27   209.48   201.22   194.12   187.67   181.57   175.48   
 169.78   164.61   159.40   154.93   150.60   146.41   142.61   138.82   135.07   131.58   
 127.88   124.18   120.68   117.03   113.51   110.35   107.16   103.69   100.41   97.11    
 93.80    90.69    87.53    84.54    81.49    78.39    75.68    72.65    69.74    66.83    
 63.92    60.44    57.66    55.12    52.69    50.44    48.34    45.31    42.02    38.51    
 35.93    31.57    29.72    27.12    25.67    22.37    13.14    12.01    11.38    11.10    
 10.71    10.75    11.52    12.47    13.50    14.60    15.76    17.04    18.55    20.24    
 22.13    24.22    26.47    28.90    31.46    34.16    36.99    40.18    43.52    47.21    
 49.83    
46859.91 49106.62 51276.55 53387.52 55588.37 57598.38 58728.82 59242.29 58112.28 56670.56 
 55610.11 54604.17 53817.49 52935.20 51745.48 50286.68 48747.62 46862.86 44845.79 42803.85 
 40919.22 39277.17 37833.93 36623.21 35788.24 35243.37 34853.45 34367.14 33852.28 33294.00 
 32780.97 32254.39 31714.92 31091.69 30135.57 29142.99 28113.39 27000.39 25943.19 24866.54 
 23789.74 22702.33 21737.54 20889.58 20139.27 19403.83 18689.45 17899.61 17147.54 16400.01 
 15690.51 14974.15 14259.80 13512.76 12779.52 12083.88 11408.14 10733.06 10081.47 9460.52  
 8889.91  8288.25  7667.99  6955.00  6316.55  5821.84  5365.49  4925.22  4506.92  4128.96  
 3763.92  3428.07  3123.39  2814.17  2505.97  2277.46  2057.34  1841.76  1628.83  1459.19  
 1304.63  1158.90  1024.35  922.87   833.09   753.04   683.71   623.78   576.96   537.87   
 500.39   463.17   425.76   387.45   357.47   329.64   307.19   288.36   273.18   260.39   
 250.60   240.80   231.03   223.75   217.12   211.35   206.03   200.95   196.15   191.62   
 187.18   182.88   178.96   174.69   170.71   166.57   162.01   157.44   152.71   147.76   
 143.04   138.14   133.64   129.32   125.56   122.23   119.02   116.32   113.11   109.97   
 106.94   103.95   100.69   97.97    95.34    92.50    89.57    86.62    83.69    80.26    
 76.17    72.09    67.71    63.60    60.76    58.34    56.52    54.91    54.35    52.12    
 50.74    49.11    46.47    42.99    40.40    38.42    35.92    32.90    30.74    29.16    
 13.71    11.72    11.74    11.82    12.09    13.02    14.22    15.53    16.86    18.25    
 19.80    21.54    23.46    25.54    27.96    30.67    33.62    36.89    40.62    44.65    
 49.83    
46859.91 49266.02 51664.29 53959.21 56265.23 57808.01 58552.51 57508.65 56221.58 55095.07 
 54140.68 53461.70 52566.69 51248.91 49538.39 47447.35 45311.55 43110.18 41241.25 39665.07 
 38210.64 37205.72 36554.09 36104.01 35647.65 35107.81 34630.89 34076.48 33496.20 32824.47 
 31985.28 30890.62 29702.34 28537.07 27467.27 26382.41 25281.53 24112.97 22982.75 21877.48 
 20736.78 19619.53 18748.45 18109.78 17536.69 16999.89 16459.43 15867.30 15211.19 14546.64 
 13867.98 13179.45 12494.78 11806.18 11228.43 10651.68 10104.31 9563.23  9004.88  8328.00  
 7583.33  6974.77  6496.58  6063.09  5602.68  5169.36  4762.84  4388.35  4030.64  3696.81  
 3354.73  3014.19  2754.54  2518.89  2291.93  2078.71  1868.44  1656.99  1492.21  1334.67  
 1201.74  1087.35  973.11   877.62   793.95   723.82   658.01   601.12   557.57   521.32   
 486.83   450.23   413.00   378.11   345.63   315.84   290.76   272.13   254.72   242.31   
 232.07   223.92   216.96   210.93   205.33   200.39   195.89   191.78   187.42   183.00   
 179.02   175.44   172.03   168.88   165.73   162.58   158.92   155.65   152.02   148.05   
 144.51   141.05   137.25   133.71   130.22   126.48   122.74   119.45   116.16   112.90   
 109.73   106.67   103.67   100.90   98.10    95.47    91.09    86.69    84.71    83.02    
 80.99    78.65    76.33    73.41    70.55    67.83    65.15    62.56    59.78    56.90    
 54.39    51.93    49.75    48.03    46.01    42.77    40.77    38.93    36.76    34.08    
 29.98    27.19    12.39    12.31    12.98    13.70    14.83    16.31    17.84    19.37    
 20.85    22.43    24.11    25.93    28.07    30.78    33.58    36.90    40.72    44.57    
 49.83    
46859.91 49277.61 51659.18 53997.30 56332.34 57746.68 58255.21 56868.23 55656.27 54617.57 
 53790.87 53145.67 52076.09 50589.73 48661.21 46490.32 44238.84 42193.87 40533.83 38988.23 
 37788.91 37138.68 36706.95 36332.50 35768.59 35255.92 34722.65 34121.21 33442.35 32578.36 
 31459.90 30287.34 29158.48 28041.81 26952.60 25838.39 24615.64 23391.33 22038.06 20775.45 
 19713.32 18972.38 18366.31 17826.85 17317.66 16785.85 16204.63 15584.23 14942.09 14292.76 
 13613.36 12967.26 12322.63 11668.17 11015.26 10450.77 9928.05  9370.34  8733.82  8015.24  
 7315.71  6831.85  6342.11  5895.40  5490.89  5069.94  4679.94  4292.68  3936.62  3604.82  
 3220.05  2938.11  2700.54  2463.21  2245.42  2030.44  1805.48  1617.30  1459.00  1310.41  
 1182.37  1058.14  952.54   859.06   774.59   703.95   638.58   580.94   536.13   501.27   
 467.32   433.25   396.60   364.18   329.18   301.28   274.90   256.88   238.86   220.92   
 210.64   202.96   196.60   191.26   186.58   182.50   178.59   175.18   171.70   168.25   
 164.78   161.59   158.58   155.90   153.42   150.87   148.53   146.24   143.97   141.52   
 138.26   135.30   132.44   129.45   126.53   123.59   120.58   117.67   114.82   112.07   
 109.36   106.68   103.99   101.27   98.54    95.91    93.26    90.13    84.11    81.89    
 79.97    78.27    76.30    73.96    71.40    68.77    66.32    63.94    61.48    59.15    
 56.53    54.28    52.39    50.42    48.67    46.82    45.05    43.13    41.46    39.74    
 33.95    29.70    19.95    13.27    13.99    14.76    16.30    18.04    19.85    21.69    
 23.43    25.13    26.83    28.52    30.32    32.73    35.37    38.38    41.99    45.91    
 49.83    
46859.91 49120.19 51426.76 53702.29 55785.15 57104.80 57544.74 56133.96 54983.82 54012.73 
 53231.53 52659.93 51713.39 50363.34 48648.83 46570.19 44384.77 42380.71 40656.71 39119.64 
 37698.03 36901.05 36380.33 35948.29 35505.19 35046.31 34567.65 34058.82 33489.61 32841.42 
 31984.71 30871.19 29692.56 28540.82 27452.11 26367.85 25224.74 24030.11 22822.67 21631.44 
 20475.64 19394.66 18580.99 17934.51 17391.49 16865.08 16315.24 15725.96 15089.25 14436.46 
 13804.91 13120.87 12467.65 11853.95 11257.57 10661.34 10130.07 9616.06  9063.60  8408.53  
 7665.87  7039.33  6557.73  6109.74  5678.35  5257.06  4846.59  4479.96  4108.94  3772.50  
 3451.86  3088.75  2834.71  2587.14  2361.49  2145.18  1933.34  1711.99  1547.02  1393.29  
 1253.58  1142.56  1031.76  920.97   834.86   761.02   694.74   632.64   584.79   546.96   
 510.58   472.59   434.28   399.40   364.25   333.12   305.87   283.63   265.19   248.98   
 236.64   226.72   218.46   211.24   204.03   197.84   192.20   187.35   182.39   177.34   
 172.80   168.73   165.06   161.60   158.36   155.34   152.27   149.30   146.23   142.48   
 139.32   136.34   133.27   130.25   126.92   123.59   120.26   117.17   114.12   111.30   
 108.53   105.45   102.54   99.73    96.98    94.30    90.60    86.15    83.67    81.39    
 79.25    77.14    74.81    72.46    69.96    67.59    65.43    63.06    60.76    57.91    
 55.53    53.71    51.73    49.78    47.87    45.41    43.67    42.29    41.00    37.42    
 35.21    29.16    16.20    16.46    17.22    18.68    20.51    22.48    24.39    26.21    
 27.96    29.69    31.37    32.95    34.76    36.93    39.15    41.68    44.56    47.73    
 49.83    
46859.91 48804.05 50845.00 52817.02 54894.90 56362.91 57404.55 57105.16 55946.11 55056.08 
 54030.12 53085.40 52420.91 51660.57 50375.03 48914.85 47209.74 45261.19 43190.80 41354.25 
 39783.47 38312.46 37036.81 36119.52 35462.06 34984.66 34546.06 34087.57 33598.39 33152.24 
 32714.86 32256.14 31736.58 31007.95 30098.01 29043.25 27960.83 26850.91 25725.62 24620.92 
 23516.22 22412.36 21393.51 20535.35 19734.30 18902.76 18072.10 17320.24 16639.07 15978.30 
 15335.14 14676.60 13990.25 13293.05 12587.58 11916.14 11241.49 10599.26 9987.71  9393.57  
 8832.16  8261.87  7676.58  7030.16  6397.39  5887.73  5454.46  5013.48  4592.30  4207.20  
 3860.70  3532.72  3229.95  2887.33  2615.77  2344.75  2125.84  1912.52  1711.41  1512.17  
 1357.90  1207.68  1083.29  963.79   874.95   789.47   716.89   651.35   595.98   555.08   
 518.56   481.24   444.06   408.77   374.64   344.68   318.31   295.84   275.76   259.90   
 247.63   235.36   223.13   213.55   205.33   197.46   190.44   183.45   177.03   171.37   
 166.09   161.13   156.63   152.63   148.45   144.73   141.31   137.42   133.66   129.88   
 126.24   122.23   118.73   115.63   112.64   109.60   106.85   104.30   101.50   98.82    
 96.29    93.97    91.55    88.78    86.45    84.03    81.62    79.21    76.72    74.75    
 72.22    69.13    65.78    62.40    58.25    55.66    53.73    52.32    51.23    51.08    
 50.44    49.05    46.33    44.21    42.80    40.86    39.22    36.39    35.39    31.41    
 19.49    19.18    19.89    21.05    22.87    24.88    26.87    28.82    30.68    32.46    
 34.19    35.88    37.53    39.19    41.34    43.41    45.42    47.56    49.83    52.21    
 49.83    
46859.91 48439.72 50135.92 51705.32 53451.83 55009.54 56137.39 56743.20 56516.86 55466.99 
 54355.55 53568.55 52575.42 51549.59 50759.63 49890.22 48767.64 47543.56 46248.95 44729.48 
 43149.92 41457.67 39872.74 38296.47 36871.20 35555.53 34353.02 33359.32 32503.53 31919.58 
 31461.93 31094.37 30677.37 30298.58 29970.43 29638.84 29287.86 28917.37 28520.71 27983.71 
 27232.80 26452.77 25672.47 24861.24 24030.40 23110.41 22065.84 21039.60 20036.74 19130.86 
 18293.84 17501.41 16728.73 15991.02 15319.37 14667.65 13977.42 13279.12 12549.80 11827.96 
 11131.88 10435.99 9763.00  9137.23  8527.60  7908.70  7305.01  6734.39  6102.09  5433.17  
 4851.47  4360.73  3932.32  3528.65  3157.73  2823.57  2522.68  2169.56  1911.25  1697.69  
 1508.05  1321.34  1165.27  1040.81  916.59   822.65   740.11   673.11   613.30   565.42   
 526.09   487.12   449.98   410.90   378.45   347.14   320.40   296.19   276.34   258.15   
 242.12   228.22   215.60   204.05   193.91   183.52   174.84   167.34   160.52   154.13   
 148.58   143.30   138.27   133.08   128.94   125.14   121.34   117.55   114.42   111.12   
 108.21   105.38   102.58   99.69    97.06    94.41    91.73    89.30    86.92    84.57    
 82.03    79.40    76.94    74.49    72.09    69.78    67.44    65.15    62.95    60.64    
 58.26    55.76    53.41    50.74    48.42    46.41    44.84    42.24    40.43    38.55    
 36.61    35.19    31.30    30.26    30.22    22.49    19.80    20.84    22.08    22.75    
 24.19    26.01    27.84    29.65    31.43    33.16    34.80    36.42    37.98    39.51    
 40.99    42.47    44.39    46.24    48.05    49.74    51.52    53.36    55.17    56.96    
 49.83    
46859.91 47926.25 49104.06 50282.19 51488.32 52784.83 53934.22 54981.89 55579.32 55840.93 
 55838.50 55245.72 54126.18 53005.01 52074.44 51014.17 50031.71 49127.92 48067.99 47106.23 
 46106.71 45057.88 44074.01 43050.95 41962.81 40898.00 39854.27 38646.16 37504.92 36488.85 
 35353.20 34233.42 33087.03 31972.05 30914.53 29838.93 28864.01 27953.78 26990.61 26097.56 
 25285.90 24533.97 23792.91 23052.47 22370.33 21760.33 21185.60 20595.01 20013.25 19420.51 
 18789.02 18109.07 17382.64 16642.68 15943.49 15233.06 14565.14 13862.85 13153.84 12437.38 
 11750.03 11087.33 10465.84 9872.28  9332.43  8804.02  8314.65  7757.38  7194.61  6662.64  
 6166.58  5676.35  5217.36  4766.02  4303.70  3865.45  3381.55  2937.47  2607.35  2277.71  
 1992.53  1726.03  1441.08  1250.62  1087.48  941.32   832.34   740.60   672.11   618.41   
 573.96   534.51   492.01   449.87   410.64   376.08   346.57   318.60   292.99   270.28   
 251.08   231.87   212.71   198.14   185.24   173.21   162.55   152.80   144.48   137.55   
 131.14   125.29   119.78   114.72   109.68   105.40   101.72   98.38    95.07    91.75    
 88.48    85.56    82.37    79.50    76.86    74.00    71.27    68.80    66.39    63.93    
 61.28    58.80    56.29    53.98    51.72    49.51    47.43    45.39    43.53    41.77    
 39.65    37.47    34.70    32.26    30.21    28.53    25.78    19.14    18.02    18.24    
 19.51    20.99    22.50    24.05    25.61    27.17    28.73    30.28    31.82    33.31    
 34.81    36.25    37.66    39.07    40.44    41.78    43.10    44.44    45.76    47.56    
 49.11    50.69    52.21    53.63    55.07    56.55    58.04    59.52    61.01    62.31    
 49.83    
46859.91 47399.94 47975.45 48689.27 49431.03 50090.63 50667.23 51063.13 51292.67 51356.00 
 51578.71 51783.69 51819.88 51781.83 51651.16 51427.73 50978.50 50511.07 50012.87 49472.25 
 48881.46 48052.74 47045.67 46025.57 44832.89 43757.65 42802.24 41831.21 40738.80 39710.24 
 38789.51 37881.28 36954.00 35934.61 34879.93 33755.96 32662.10 31610.67 30604.49 29649.48 
 28603.14 27586.51 26547.21 25637.90 24706.79 23744.83 22797.93 21912.50 20973.87 20038.67 
 19086.90 18151.56 17300.59 16465.74 15650.18 14830.97 14011.73 13280.62 12596.25 11843.25 
 11160.86 10479.02 9797.18  9152.78  8515.72  7872.91  7273.14  6746.00  6206.27  5680.04  
 5165.19  4641.87  4161.41  3735.42  3332.87  2944.90  2630.04  2350.79  2067.98  1819.32  
 1594.65  1409.43  1237.35  1107.39  977.75   848.11   749.12   663.09   597.45   540.98   
 486.38   444.52   401.26   359.12   320.46   286.02   257.03   231.86   208.60   188.75   
 170.89   156.06   142.51   130.10   119.74   109.39   101.49   94.27    87.86    82.20    
 77.27    72.75    68.62    64.65    61.45    58.08    54.82    51.92    49.12    46.68    
 43.87    40.85    38.44    36.27    34.15    31.94    29.73    27.56    25.42    23.14    
 21.00    18.03    15.11    13.90    13.70    14.25    15.23    16.26    17.32    18.40    
 19.50    20.65    21.80    22.99    24.21    25.44    26.68    27.94    29.20    30.46    
 31.72    32.95    34.22    35.47    36.72    37.95    39.18    40.45    41.64    42.87    
 44.10    45.30    46.49    47.71    48.92    50.15    51.39    53.00    54.96    56.20    
 57.42    58.67    59.91    61.13    62.34    63.59    64.81    65.95    67.04    68.07    
 49.83    
46859.91 46845.61 46849.50 47014.54 47201.42 47351.86 47016.38 46502.00 46290.86 45882.48 
 45318.94 44858.16 44269.88 43732.45 43251.93 42731.76 41955.62 41435.81 40899.20 40506.99 
 39690.55 38893.11 38087.92 37411.34 36985.62 36128.07 35410.74 34468.03 33532.48 32765.75 
 31784.18 30880.32 29788.50 28863.32 27779.22 26689.29 25502.74 24528.46 23478.77 22345.12 
 21222.45 20184.30 19107.01 18041.29 16903.34 15844.99 15000.73 14034.12 13110.42 12110.71 
 11330.88 10553.27 9579.78  8790.83  8031.86  7344.14  6621.37  6086.16  5517.57  4933.50  
 4397.82  3918.65  3500.62  3104.95  2765.36  2447.63  2141.98  1865.81  1633.60  1430.44  
 1221.87  1054.54  887.65   746.38   620.00   516.60   418.75   334.16   262.81   206.84   
 162.41   124.70   95.22    65.82    52.14    40.59    24.07    5.51     3.62     3.44     
 3.39     3.37     3.36     3.32     3.27     3.46     3.69     3.94     4.21     4.50     
 4.82     5.17     5.55     5.93     6.38     6.87     7.37     7.87     8.40     8.96     
 9.59     10.26    10.96    11.68    12.41    13.20    14.04    14.90    15.77    16.70    
 17.66    18.63    19.62    20.63    21.70    22.79    23.92    25.08    26.26    27.45    
 28.65    29.90    31.14    32.42    33.72    34.99    36.26    37.47    38.58    39.74    
 40.88    41.99    43.13    44.29    45.35    46.42    47.46    48.47    49.46    50.49    
 51.51    52.46    53.41    54.31    55.19    55.99    56.74    57.48    58.17    58.82    
 59.41    59.99    60.54    61.05    61.53    61.94    62.54    63.84    64.20    64.46    
 64.64    64.73    64.75    64.67    64.47    64.14    63.67    63.07    62.33    61.44    
 49.83    
46859.91 46129.28 45526.47 45251.19 45100.86 44955.31 44466.73 43894.82 43047.37 42707.73 
 41556.43 40799.58 39934.59 37264.01 35527.12 32766.31 30813.84 29162.11 28198.05 26355.35 
 24754.25 23154.37 21711.63 20613.08 18695.63 17106.51 14912.02 13379.63 12001.91 11119.78 
 9756.88  8594.39  7274.23  6242.25  5650.85  4710.18  3929.58  3323.25  2746.02  2169.36  
 1651.33  1211.19  961.08   738.63   563.29   403.97   330.45   256.92   183.76   149.59   
 122.23   104.77   90.78    76.74    64.57    55.85    49.09    43.34    38.81    34.47    
 30.81    27.82    25.03    22.77    20.65    18.54    15.88    13.91    13.07    12.69    
 12.30    12.02    11.78    11.52    11.24    10.88    10.53    10.16    9.96     9.68     
 9.07     8.43     7.54     6.19     4.74     2.99     2.68     2.85     3.07     3.30     
 3.56     3.84     4.15     4.49     4.86     5.26     5.66     6.12     6.61     7.13     
 7.68     8.23     8.81     9.43     10.07    10.74    11.46    12.20    12.96    13.77    
 14.62    15.55    16.48    17.43    18.44    19.49    20.59    21.72    22.83    23.94    
 25.08    26.28    27.49    28.69    29.89    31.10    32.38    33.66    34.96    36.27    
 37.60    38.90    40.24    41.55    42.85    44.12    45.41    46.67    47.88    49.06    
 50.23    51.34    52.42    53.46    54.50    55.51    56.53    57.55    58.55    59.54    
 60.50    61.42    62.27    63.11    63.87    64.56    65.16    65.66    66.12    66.50    
 66.84    67.09    67.31    67.48    67.65    67.73    67.91    68.35    68.55    68.31    
 67.96    67.50    66.93    66.17    65.30    64.27    63.04    61.64    60.00    58.30    
 49.83    
46859.91 45579.10 44771.68 44283.71 44020.76 43849.28 43670.19 40140.14 35928.71 32969.20 
 31103.58 28139.20 25911.26 23313.00 20098.11 17428.88 16529.59 13719.62 11782.02 9855.61  
 7929.20  6349.24  5217.03  2586.64  1307.84  997.44   697.27   515.34   388.01   285.91   
 213.68   167.01   142.66   128.22   113.89   99.55    87.82    78.57    71.08    63.99    
 57.52    51.60    45.81    40.87    36.43    32.67    29.78    26.93    24.36    21.93    
 19.47    16.79    14.91    13.67    12.89    12.17    11.52    10.85    10.24    9.71     
 9.20     8.68     8.17     7.69     7.23     6.92     6.60     6.29     5.98     5.75     
 5.56     5.39     5.14     4.90     4.66     4.51     4.32     4.10     3.88     3.71     
 3.52     3.35     3.17     3.06     3.07     3.24     3.46     3.71     3.99     4.28     
 4.60     4.96     5.33     5.75     6.20     6.68     7.18     7.74     8.33     8.95     
 9.62     10.31    11.04    11.79    12.60    13.47    14.35    15.25    16.16    17.11    
 18.11    19.13    20.20    21.26    22.38    23.57    24.75    25.91    27.11    28.38    
 29.68    30.95    32.25    33.58    34.96    36.33    37.72    39.14    40.61    42.08    
 43.53    45.00    46.46    47.91    49.40    50.93    52.42    53.88    55.32    56.78    
 58.24    59.74    61.22    62.67    64.08    65.45    66.79    68.10    69.38    70.55    
 71.68    72.70    73.67    74.56    75.40    76.08    76.66    77.14    77.48    77.72    
 77.90    78.01    77.94    77.76    77.47    77.07    76.56    75.88    75.08    74.20    
 73.20    72.03    70.70    69.20    67.57    65.69    63.64    61.36    59.05    56.34    
 49.83    
46859.91 45070.72 44098.07 43389.35 43024.11 40769.57 35864.26 33195.36 29823.53 26027.67 
 22231.82 18453.26 16748.80 12356.16 10532.42 7664.85  5405.56  3146.28  906.38   608.84   
 499.30   384.92   322.67   277.99   233.31   188.87   171.69   130.56   101.55   83.48    
 70.14    61.99    56.36    51.88    48.40    45.35    42.42    39.54    37.77    35.21    
 32.52    29.23    27.03    25.21    24.25    23.82    23.09    21.93    20.77    19.54    
 18.11    16.82    15.50    14.01    12.51    11.17    10.21    9.52     9.01     8.43     
 7.77     7.22     6.72     6.24     5.81     5.40     5.02     4.62     4.35     4.13     
 3.97     3.81     3.67     3.55     3.44     3.36     3.30     3.23     3.23     3.23     
 3.24     3.29     3.38     3.50     3.66     3.84     4.02     4.22     4.42     4.65     
 4.89     5.15     5.43     5.74     6.10     6.49     6.91     7.37     7.87     8.41     
 8.96     9.53     10.13    10.79    11.49    12.21    12.96    13.76    14.58    15.44    
 16.33    17.28    18.24    19.24    20.25    21.29    22.37    23.47    24.55    25.63    
 26.74    27.92    29.13    30.33    31.52    32.73    34.01    35.34    36.67    38.03    
 39.44    40.88    42.40    43.91    45.47    47.07    48.76    50.49    52.20    53.98    
 55.85    57.71    59.57    61.45    63.31    65.20    67.01    68.80    70.51    72.19    
 73.81    75.38    76.85    78.31    79.64    80.81    81.83    82.67    83.33    83.81    
 84.18    84.28    84.19    83.90    83.41    82.74    81.90    80.78    79.57    78.19    
 76.64    74.85    72.88    70.73    68.42    65.95    63.26    60.39    57.34    54.01    
 49.83    
46859.91 44812.60 43749.03 43048.75 41097.65 35012.78 31608.95 27911.62 23846.13 19303.97 
 16357.37 12004.05 9349.99  6715.09  1867.26  1110.34  396.30   328.01   199.22   201.59   
 161.19   176.62   136.55   119.11   101.92   81.38    84.74    79.53    77.80    68.03    
 59.71    59.43    57.70    60.75    49.23    42.27    44.47    36.52    41.20    43.66    
 36.97    41.16    36.70    39.98    33.53    32.07    29.12    29.19    28.12    22.09    
 23.14    21.30    19.58    14.11    10.60    9.30     9.16     9.15     8.36     7.60     
 6.92     6.32     5.76     5.24     4.74     4.29     3.93     3.63     3.36     3.11     
 2.90     2.74     2.63     2.55     2.50     2.46     2.45     2.45     2.45     2.46     
 2.52     2.59     2.69     2.80     2.93     3.08     3.24     3.40     3.57     3.77     
 3.98     4.20     4.45     4.71     5.02     5.35     5.72     6.13     6.57     7.05     
 7.55     8.06     8.63     9.25     9.90     10.58    11.28    12.02    12.81    13.61    
 14.44    15.32    16.23    17.17    18.15    19.15    20.19    21.27    22.39    23.54    
 24.70    25.88    27.11    28.33    29.55    30.76    32.03    33.28    34.53    35.78    
 37.03    38.31    39.64    41.00    42.40    43.83    45.34    46.96    48.63    50.32    
 52.04    53.82    55.69    57.65    59.65    61.72    63.85    65.99    68.16    70.32    
 72.43    74.41    76.33    78.10    79.83    81.37    82.79    84.11    85.32    86.35    
 87.14    87.70    87.96    87.95    87.59    86.93    85.92    84.62    83.10    81.29    
 79.24    76.93    74.49    71.67    68.87    65.77    62.57    59.29    55.84    52.16    
 49.83    
46859.91 44475.43 43230.75 42474.14 39484.27 33171.22 29441.69 24680.35 19935.03 17305.63 
 11849.87 8933.99  6057.89  3181.79  330.56   244.92   159.82   132.24   120.21   121.35   
 90.66    54.97    39.08    34.58    26.09    22.10    19.42    17.51    15.70    14.43    
 13.80    12.97    12.02    11.09    10.09    9.36     8.90     8.54     8.28     8.00     
 7.63     7.28     6.94     6.60     6.37     6.08     5.76     5.48     5.26     4.95     
 4.70     4.45     4.19     3.97     3.75     3.52     3.28     3.08     2.91     2.78     
 2.68     2.57     2.49     2.43     2.35     2.29     2.24     2.19     2.17     2.12     
 2.09     2.06     2.05     2.04     2.04     2.05     2.06     2.06     2.09     2.12     
 2.16     2.23     2.30     2.38     2.47     2.58     2.69     2.81     2.94     3.09     
 3.25     3.42     3.59     3.79     4.01     4.25     4.52     4.83     5.16     5.55     
 5.96     6.41     6.90     7.41     7.96     8.52     9.12     9.73     10.37    11.03    
 11.73    12.48    13.23    13.99    14.77    15.62    16.51    17.46    18.40    19.39    
 20.41    21.52    22.67    23.87    25.08    26.35    27.69    29.10    30.49    31.89    
 33.26    34.70    36.15    37.60    39.02    40.46    41.94    43.40    44.88    46.41    
 48.03    49.72    51.46    53.28    55.16    57.12    59.12    61.22    63.36    65.65    
 67.97    70.36    72.69    75.04    77.32    79.42    81.40    83.12    84.74    86.13    
 87.38    88.42    89.12    89.51    89.52    89.16    88.37    87.15    85.58    83.68    
 81.48    78.99    76.24    73.21    69.97    66.55    63.01    59.43    55.80    52.09    
 49.83    
46859.91 44453.68 43176.33 42438.09 38733.63 32949.23 28535.77 24203.22 18807.46 15345.26 
 11530.39 7711.14  3891.89  1998.84  126.82   71.74    35.61    25.81    20.06    16.61    
 14.43    12.53    11.02    10.20    9.50     8.89     8.21     7.66     7.20     6.93     
 6.90     6.71     6.28     5.67     5.16     4.99     4.87     4.85     4.63     4.61     
 4.58     4.49     4.23     4.13     4.10     4.09     4.09     4.06     3.96     3.83     
 3.75     3.67     3.61     3.52     3.46     3.36     3.24     3.14     3.07     2.98     
 2.93     2.92     2.89     2.83     2.76     2.68     2.61     2.54     2.49     2.44     
 2.42     2.39     2.36     2.34     2.32     2.33     2.34     2.35     2.36     2.37     
 2.43     2.50     2.57     2.67     2.84     3.00     3.14     3.26     3.39     3.52     
 3.67     3.83     4.01     4.19     4.37     4.56     4.78     5.02     5.30     5.63     
 6.00     6.41     6.84     7.32     7.82     8.36     8.92     9.52     10.13    10.77    
 11.43    12.12    12.84    13.57    14.32    15.09    15.87    16.69    17.54    18.43    
 19.38    20.36    21.43    22.54    23.73    24.95    26.27    27.64    29.06    30.43    
 31.89    33.40    34.91    36.41    37.92    39.41    40.93    42.43    43.94    45.42    
 46.89    48.43    50.08    51.81    53.60    55.47    57.42    59.40    61.49    63.71    
 66.01    68.36    70.73    73.11    75.50    77.73    79.80    81.72    83.45    84.96    
 86.27    87.38    88.18    88.63    88.70    88.34    87.58    86.34    84.72    82.70    
 80.41    77.81    75.05    72.15    69.14    66.06    62.97    59.90    56.81    53.44    
 49.83    
