IESNA:LM-63-2002
[TEST] 1
[TESTLAB] AOK
[TESTDATE] 2022-05-23
[ISSUEDATE] 2022-05-23 16:00:58
[NEARFIELD] 
[LAMPPOSITION] 0,0
[OTHER] EVERFINE GO-2000A_V1 SYSTEM
[MANUFAC] AOK
[LUMCAT] A
[LUMINAIRE] AOK-400WiSF-HV-S35-00-5070-15D-P
[LAMPCAT] B
[LAMP] 5050
[BALLAST] E
[BALLASTCAT] F
[OTHER] 
[OTHER] Gamma(deg)    Fz(lm)      Ft(lm)     %Lum    %Lamp
[OTHER]   0- 10     23938.71    23938.71    46.60    46.60
[OTHER]  10- 20     12378.48    36317.19    70.70    70.70
[OTHER]  20- 30      4677.08    40994.27    79.80    79.80
[OTHER]  30- 40      2978.90    43973.17    85.60    85.60
[OTHER]  40- 50      2391.39    46364.56    90.26    90.26
[OTHER]  50- 60      2004.86    48369.42    94.16    94.16
[OTHER]  60- 70      1439.77    49809.19    96.96    96.96
[OTHER]  70- 80       722.97    50532.16    98.37    98.37
[OTHER]  80- 90       280.56    50812.72    98.92    98.92
[OTHER]  90-100       144.83    50957.55    99.20    99.20
[OTHER] 100-110       102.79    51060.35    99.40    99.40
[OTHER] 110-120        84.20    51144.55    99.56    99.56
[OTHER] 120-130        63.99    51208.54    99.69    99.69
[OTHER] 130-140        44.92    51253.46    99.77    99.77
[OTHER] 140-150        32.64    51286.10    99.84    99.84
[OTHER] 150-160        36.82    51322.92    99.91    99.91
[OTHER] 160-170        34.88    51357.80    99.98    99.98
[OTHER] 170-180        11.93    51369.73   100.00   100.00
[OTHER] 
TILT=NONE
1 51370 1 181 25 1 2 0.150 0.200 0.000
1.000 1 404.197
0.0    1.0    2.0    3.0    4.0    5.0    6.0    7.0    8.0    9.0    
 10.0   11.0   12.0   13.0   14.0   15.0   16.0   17.0   18.0   19.0   
 20.0   21.0   22.0   23.0   24.0   25.0   26.0   27.0   28.0   29.0   
 30.0   31.0   32.0   33.0   34.0   35.0   36.0   37.0   38.0   39.0   
 40.0   41.0   42.0   43.0   44.0   45.0   46.0   47.0   48.0   49.0   
 50.0   51.0   52.0   53.0   54.0   55.0   56.0   57.0   58.0   59.0   
 60.0   61.0   62.0   63.0   64.0   65.0   66.0   67.0   68.0   69.0   
 70.0   71.0   72.0   73.0   74.0   75.0   76.0   77.0   78.0   79.0   
 80.0   81.0   82.0   83.0   84.0   85.0   86.0   87.0   88.0   89.0   
 90.0   91.0   92.0   93.0   94.0   95.0   96.0   97.0   98.0   99.0   
 100.0  101.0  102.0  103.0  104.0  105.0  106.0  107.0  108.0  109.0  
 110.0  111.0  112.0  113.0  114.0  115.0  116.0  117.0  118.0  119.0  
 120.0  121.0  122.0  123.0  124.0  125.0  126.0  127.0  128.0  129.0  
 130.0  131.0  132.0  133.0  134.0  135.0  136.0  137.0  138.0  139.0  
 140.0  141.0  142.0  143.0  144.0  145.0  146.0  147.0  148.0  149.0  
 150.0  151.0  152.0  153.0  154.0  155.0  156.0  157.0  158.0  159.0  
 160.0  161.0  162.0  163.0  164.0  165.0  166.0  167.0  168.0  169.0  
 170.0  171.0  172.0  173.0  174.0  175.0  176.0  177.0  178.0  179.0  
 180.0  
0.0    15.0   30.0   45.0   60.0   75.0   90.0   105.0  120.0  135.0  
 150.0  165.0  180.0  195.0  210.0  225.0  240.0  255.0  270.0  285.0  
 300.0  315.0  330.0  345.0  360.0  
376089.56 375828.95 374640.97 372139.36 367252.88 316313.04 267212.86 222085.72 168368.53 119912.41 
 84997.50 50239.88 26923.56 6462.19  523.47   324.93   184.61   44.29    31.01    23.78    
 20.37    17.06    14.66    12.91    11.57    10.32    9.22     8.27     7.64     7.37     
 7.65     7.92     8.00     7.63     7.17     6.77     6.08     5.65     5.41     5.29     
 5.31     5.03     4.75     4.34     4.05     3.63     3.47     3.38     3.23     3.05     
 2.79     2.66     2.61     2.60     2.56     2.55     2.53     2.53     2.48     2.43     
 2.42     2.41     2.41     2.41     2.41     2.41     2.41     2.41     2.39     2.39     
 2.39     2.39     2.39     2.39     2.39     2.39     2.40     2.42     2.43     2.44     
 2.45     2.46     2.48     2.49     2.61     2.79     2.93     3.06     3.13     3.19     
 3.25     3.34     3.46     3.55     3.59     3.65     3.73     3.82     3.96     4.12     
 4.31     4.51     4.75     5.01     5.29     5.58     5.90     6.22     6.53     6.84     
 7.13     7.41     7.68     7.94     8.20     8.48     8.78     9.11     9.47     9.85     
 10.27    10.70    11.16    11.63    12.13    12.63    13.22    13.82    14.48    15.16    
 15.85    16.59    17.37    18.18    19.04    19.96    20.97    22.06    23.30    24.65    
 26.17    27.82    29.79    32.03    34.55    37.56    41.08    45.07    49.71    55.43    
 62.50    70.83    80.39    90.87    102.20   114.85   127.75   140.56   153.53   166.57   
 178.90   190.54   201.54   210.41   217.17   221.35   222.98   222.29   219.49   214.78   
 208.88   201.92   194.30   186.25   177.91   169.22   160.51   151.15   141.26   130.18   
 118.91   
376089.56 375916.87 374232.45 371851.97 366708.98 332661.69 282110.68 231559.66 180946.03 122184.29 
 88846.37 52602.45 39655.39 26708.32 13761.26 931.54   800.47   572.65   344.84   118.49   
 90.26    87.27    77.97    51.87    65.11    62.57    35.86    21.74    15.48    12.11    
 9.65     8.32     7.59     7.05     6.28     5.01     4.56     4.47     4.35     4.24     
 4.05     4.01     4.40     4.45     4.44     4.43     4.27     4.20     4.05     3.92     
 3.74     3.66     3.54     3.44     3.39     3.35     3.28     3.20     3.14     3.06     
 2.96     2.83     2.74     2.66     2.59     2.52     2.46     2.39     2.32     2.24     
 2.19     2.16     2.11     2.07     2.03     2.02     2.02     2.01     2.00     1.99     
 1.99     2.00     2.03     2.07     2.12     2.19     2.27     2.35     2.43     2.53     
 2.63     2.74     2.84     2.96     3.09     3.21     3.35     3.50     3.66     3.85     
 4.05     4.26     4.48     4.73     4.98     5.25     5.53     5.80     6.10     6.40     
 6.71     7.01     7.33     7.63     7.94     8.26     8.61     8.98     9.36     9.74     
 10.16    10.63    11.12    11.62    12.12    12.66    13.23    13.82    14.46    15.11    
 15.81    16.55    17.31    18.11    18.97    19.88    20.94    22.06    23.27    24.62    
 26.17    27.90    29.83    32.04    34.58    37.54    40.93    44.90    49.59    55.31    
 62.15    70.33    79.67    90.21    101.90   114.12   127.04   139.86   152.96   165.89   
 178.35   190.37   201.13   210.23   216.91   221.18   222.79   222.13   219.38   214.86   
 209.19   202.46   195.00   187.04   178.82   170.52   161.72   152.35   141.44   129.84   
 118.91   
376089.56 375507.13 373086.98 369974.17 363726.68 350632.02 293510.15 237214.15 183741.06 131725.17 
 96690.86 61854.54 37298.50 27367.55 16032.95 8664.21  1336.97  976.92   705.59   529.32   
 371.63   201.42   126.60   105.65   85.29    73.73    61.90    50.43    43.38    37.52    
 32.79    27.86    23.63    21.15    19.25    17.41    15.32    13.11    10.78    10.11    
 9.88     9.84     9.32     8.77     8.41     8.22     7.40     6.84     6.55     6.15     
 5.64     5.27     4.79     4.16     3.77     3.63     3.49     3.34     3.15     2.95     
 2.80     2.64     2.51     2.42     2.35     2.28     2.21     2.15     2.09     2.05     
 2.02     1.99     1.96     1.95     1.93     1.92     1.90     1.89     1.88     1.87     
 1.87     1.87     1.89     1.94     2.01     2.08     2.16     2.26     2.36     2.46     
 2.58     2.71     2.85     3.00     3.16     3.32     3.48     3.65     3.83     4.01     
 4.20     4.40     4.59     4.81     5.02     5.25     5.48     5.71     5.97     6.25     
 6.53     6.82     7.12     7.43     7.76     8.10     8.45     8.80     9.16     9.55     
 9.96     10.38    10.80    11.25    11.71    12.21    12.70    13.23    13.81    14.44    
 15.11    15.81    16.57    17.41    18.32    19.31    20.39    21.61    22.94    24.43    
 26.06    27.90    30.03    32.38    35.10    38.14    41.67    45.96    51.04    57.01    
 64.20    72.46    81.92    92.54    104.11   116.31   128.96   142.20   155.31   168.54   
 181.08   192.58   202.60   210.65   216.49   220.04   221.26   220.23   217.46   213.04   
 207.35   200.59   193.27   185.29   177.09   168.76   159.27   148.93   138.14   126.96   
 118.91   
376089.56 375431.62 372695.25 368225.04 360569.08 342901.92 314625.78 255509.93 196466.09 147080.96 
 105338.58 76998.91 50844.13 36804.86 27018.10 17292.14 14128.03 9110.34  6376.86  3643.38  
 929.19   722.93   471.16   372.11   273.05   174.43   125.50   94.77    73.39    60.24    
 51.33    44.15    38.45    33.92    30.46    27.58    24.95    22.72    20.80    19.05    
 17.51    15.92    14.15    11.81    10.00    9.22     8.87     8.43     8.03     7.63     
 7.18     6.74     6.30     5.85     5.43     5.07     4.81     4.58     4.37     4.16     
 3.97     3.79     3.62     3.45     3.31     3.20     3.08     2.97     2.85     2.73     
 2.61     2.48     2.37     2.26     2.17     2.08     2.00     1.93     1.88     1.83     
 1.77     1.76     1.77     1.80     1.86     1.93     2.02     2.11     2.21     2.32     
 2.44     2.57     2.70     2.84     3.00     3.15     3.31     3.48     3.65     3.83     
 4.02     4.22     4.41     4.63     4.85     5.07     5.31     5.55     5.79     6.05     
 6.32     6.60     6.89     7.17     7.47     7.77     8.09     8.42     8.74     9.07     
 9.42     9.79     10.17    10.56    10.95    11.36    11.81    12.31    12.81    13.35    
 13.91    14.54    15.23    15.96    16.80    17.70    18.74    19.90    21.15    22.54    
 24.21    26.01    28.06    30.44    33.15    36.34    40.07    44.50    49.72    56.00    
 63.28    71.68    81.07    91.58    103.16   115.29   128.28   141.21   154.38   167.25   
 179.19   190.02   199.29   206.95   212.38   215.73   217.05   216.36   213.77   209.62   
 205.12   199.37   192.17   183.64   175.04   166.83   157.71   147.80   137.82   127.74   
 118.91   
376089.56 374707.06 371245.86 364394.55 349938.07 325322.57 290218.11 249524.17 204015.35 160822.87 
 120389.66 91495.45 62732.65 48731.64 37132.54 29703.30 23719.78 16651.82 13201.56 10703.30 
 8216.13  5728.96  4670.54  3056.13  2328.79  1628.51  1068.03  509.01   400.58   292.69   
 209.46   152.46   127.70   103.31   78.92    66.70    56.76    48.99    42.26    36.97    
 32.42    28.39    25.25    22.61    20.49    18.57    16.85    15.47    14.29    13.05    
 11.82    10.61    9.09     7.55     6.92     6.67     6.40     6.17     5.94     5.70     
 5.51     5.32     5.14     4.98     4.83     4.69     4.56     4.46     4.36     4.28     
 4.19     4.09     3.98     3.86     3.70     3.54     3.36     3.16     2.95     2.74     
 2.53     2.24     2.04     1.99     1.99     2.06     2.14     2.24     2.34     2.43     
 2.55     2.67     2.80     2.94     3.09     3.25     3.42     3.58     3.76     3.95     
 4.15     4.34     4.56     4.78     5.01     5.24     5.48     5.72     5.97     6.23     
 6.49     6.77     7.05     7.32     7.61     7.90     8.21     8.51     8.83     9.15     
 9.48     9.80     10.15    10.49    10.85    11.20    11.58    11.98    12.40    12.85    
 13.32    13.83    14.36    14.99    15.71    16.54    17.46    18.48    19.62    20.96    
 22.53    24.30    26.38    28.79    31.66    35.09    39.14    43.92    49.72    56.47    
 64.24    72.93    82.72    93.46    105.03   117.07   129.56   142.06   154.39   166.26   
 177.05   186.91   195.36   202.23   207.47   210.81   212.38   212.10   211.18   207.32   
 202.30   196.25   189.55   181.97   173.48   165.43   157.28   148.30   139.28   130.05   
 118.91   
376089.56 374429.85 370552.87 362666.50 345664.16 316523.67 274570.87 232618.09 190673.90 149939.48 
 117078.44 92127.36 73262.79 59730.21 49162.38 40706.92 33947.18 29234.41 24521.63 19815.12 
 15954.69 12561.92 10254.70 8617.92  7082.47  5829.52  4794.26  4100.08  3615.76  3194.02  
 2806.10  2418.73  2105.03  1838.55  1591.58  1372.47  1166.93  997.06   840.54   699.70   
 574.86   459.73   359.20   299.77   240.33   181.07   142.86   108.76   85.18    67.81    
 54.04    44.36    37.52    32.07    28.17    24.78    22.05    19.96    18.01    16.59    
 15.35    14.40    13.52    12.75    11.94    10.97    10.19    9.34     9.07     8.98     
 8.89     8.82     8.70     8.56     8.45     8.34     8.21     8.05     7.85     7.47     
 6.85     5.95     4.84     2.92     1.67     1.68     1.75     1.81     1.89     1.97     
 2.05     2.15     2.25     2.36     2.49     2.62     2.75     2.90     3.05     3.22     
 3.39     3.55     3.74     3.93     4.13     4.34     4.55     4.77     5.00     5.25     
 5.50     5.74     6.02     6.30     6.57     6.85     7.14     7.45     7.75     8.05     
 8.36     8.69     9.02     9.35     9.66     9.99     10.34    10.70    11.07    11.44    
 11.83    12.24    12.70    13.23    13.77    14.40    15.12    15.97    16.95    18.11    
 19.49    21.15    23.06    25.42    28.27    31.75    35.95    40.99    46.91    53.97    
 61.94    70.92    80.61    91.17    102.48   114.04   126.04   137.78   149.37   160.53   
 170.75   180.06   188.16   195.20   200.77   205.06   207.78   210.10   209.67   207.77   
 204.55   200.17   194.66   188.22   180.22   172.55   164.86   155.46   145.51   136.09   
 118.91   
376089.56 374752.07 371053.72 363556.24 346891.16 318886.25 281717.54 236816.36 191944.88 150049.02 
 116852.62 92538.42 74773.89 61511.10 50868.18 42066.54 34986.52 29471.07 25489.62 21517.16 
 18426.71 15755.71 13462.40 11550.01 9916.08  8550.59  7546.72  6811.50  6319.67  5926.62  
 5580.64  5277.49  5005.89  4742.73  4486.26  4259.01  4045.96  3856.71  3695.28  3531.19  
 3377.96  3234.53  3078.19  2943.69  2802.85  2665.34  2527.83  2390.34  2254.25  2127.43  
 2013.18  1900.39  1795.27  1694.43  1596.21  1504.25  1411.86  1323.37  1234.02  1145.85  
 1062.02  980.55   902.53   826.32   751.58   679.40   611.90   545.92   481.93   423.39   
 368.66   317.69   277.33   236.97   196.70   164.11   137.32   114.77   97.28    81.69    
 68.76    58.71    49.18    40.78    32.89    3.20     2.14     1.11     0.92     0.86     
 0.82     0.78     0.78     0.79     0.80     0.82     0.82     0.84     0.86     0.86     
 0.88     0.90     0.93     0.95     0.98     1.00     1.03     1.07     1.11     1.14     
 1.18     1.22     1.27     1.31     1.36     1.40     1.45     1.48     1.53     1.58     
 1.63     1.68     1.75     1.80     1.85     1.91     1.97     2.03     2.09     2.17     
 2.25     2.34     2.43     2.54     2.66     2.79     2.95     3.14     3.35     3.60     
 3.90     4.27     4.71     5.28     5.92     6.69     7.57     8.56     9.66     10.93    
 12.25    13.69    15.25    16.96    18.79    20.78    22.88    25.10    27.42    29.71    
 32.04    34.40    36.76    39.17    41.59    44.09    46.65    49.46    53.02    55.43    
 58.67    61.93    65.65    70.04    74.35    80.44    88.00    96.08    104.77   114.41   
 118.91   
376089.56 374276.98 369961.68 361048.22 343256.55 313515.34 272814.33 226766.53 182953.85 145114.20 
 113952.15 94940.73 76033.53 63490.20 53778.65 45867.88 39459.74 34245.47 29885.31 26001.85 
 22622.97 19654.42 16957.43 14613.53 12540.65 11247.52 9960.55  8673.59  7972.71  7433.31  
 7010.77  6652.81  6350.93  6105.07  5880.07  5696.01  5537.87  5388.32  5250.02  5120.59  
 4997.64  4885.53  4765.94  4633.10  4500.53  4364.38  4223.80  4088.38  3951.41  3825.21  
 3717.00  3605.42  3497.81  3391.03  3286.65  3184.30  3082.76  2980.82  2879.69  2772.16  
 2667.38  2563.71  2459.76  2351.82  2245.44  2139.07  2034.70  1930.34  1818.00  1706.38  
 1595.58  1487.98  1376.70  1264.70  1164.27  1063.94  963.62   874.34   789.92   711.27   
 638.26   572.01   509.65   455.38   408.08   367.37   333.72   306.34   285.93   267.31   
 248.91   229.83   211.56   195.71   180.91   166.93   154.90   144.90   135.14   126.64   
 118.16   109.68   103.20   97.45    92.03    86.99    82.35    77.89    74.22    70.50    
 66.65    63.34    60.20    56.70    53.39    50.20    47.16    44.09    41.08    38.11    
 35.38    32.84    30.20    27.48    24.85    22.03    18.98    15.98    12.98    10.02    
 6.85     5.06     3.74     2.63     1.96     1.90     1.96     2.08     2.24     2.43     
 2.66     2.96     3.31     3.77     4.33     4.98     5.75     6.64     7.65     8.78     
 10.01    11.32    12.79    14.38    16.06    17.79    19.65    21.54    23.46    25.43    
 27.43    29.48    31.52    33.63    35.74    37.91    40.18    42.54    45.08    48.81    
 51.65    54.09    58.62    63.06    67.57    74.02    82.17    90.97    100.50   111.01   
 118.91   
376089.56 374471.32 370485.81 362464.54 345736.95 317894.31 275172.07 232449.83 189773.48 151642.95 
 122090.66 100925.49 84374.05 71338.03 61051.07 53208.30 46966.64 41526.07 37010.96 33307.37 
 29654.70 26564.39 23474.07 20389.75 17843.42 15712.95 13905.81 12347.94 11012.57 9892.20  
 8959.58  8197.32  7598.28  7155.11  6849.43  6606.78  6403.90  6226.76  6070.17  5932.40  
 5803.40  5674.72  5542.99  5420.82  5296.76  5182.56  5058.73  4928.90  4797.45  4664.10  
 4537.99  4417.41  4293.71  4175.04  4050.12  3929.58  3809.45  3689.23  3561.39  3430.32  
 3294.41  3154.52  3014.69  2879.35  2753.44  2620.61  2487.78  2355.33  2220.63  2084.10  
 1945.40  1804.06  1672.20  1551.03  1427.64  1304.56  1179.06  1068.40  963.71   866.94   
 776.15   690.40   616.85   552.10   495.48   447.70   410.72   381.12   356.09   336.56   
 317.24   297.38   278.43   261.67   247.86   234.05   220.27   209.45   199.21   190.28   
 182.42   175.34   168.92   162.81   157.47   152.25   148.02   143.65   139.64   136.05   
 132.81   129.47   126.24   123.32   120.61   117.67   115.00   112.33   109.73   107.16   
 104.65   102.30   99.97    97.59    95.24    92.71    90.21    87.59    84.89    82.18    
 79.31    76.66    74.02    71.14    68.29    65.47    62.18    58.71    55.71    52.58    
 49.19    45.78    42.51    39.69    36.50    32.69    23.30    10.73    8.15     7.40     
 8.13     9.49     10.97    12.60    14.33    16.19    18.17    20.23    22.38    24.55    
 26.69    28.85    31.03    33.20    35.30    37.34    39.37    41.41    43.42    45.61    
 47.99    51.10    54.96    59.11    63.53    69.96    78.04    87.24    97.63    108.54   
 118.91   
376089.56 374155.24 369911.14 361695.70 345344.08 317814.39 277425.91 230834.92 187342.96 151736.50 
 123388.35 105196.63 87091.91 74752.55 65398.55 57568.92 51651.75 46717.95 42227.46 38021.16 
 34097.55 30527.68 27233.24 24103.01 21404.52 19080.81 17087.91 15323.63 13757.23 12330.78 
 11200.86 10073.74 8946.62  8245.16  7745.90  7383.21  7097.29  6845.62  6616.86  6414.02  
 6245.41  6078.33  5931.65  5803.56  5681.23  5553.75  5427.03  5308.72  5199.69  5086.33  
 4964.45  4830.19  4693.01  4565.80  4441.48  4303.19  4160.77  4005.51  3850.94  3699.18  
 3548.65  3401.73  3250.45  3100.71  2959.39  2814.55  2671.28  2523.61  2368.31  2213.75  
 2061.99  1919.86  1781.00  1634.58  1492.89  1362.84  1232.90  1111.32  989.82   887.38   
 797.69   713.62   636.06   567.58   515.06   472.26   435.66   402.87   376.05   356.35   
 337.10   316.73   297.60   281.33   266.89   255.18   245.17   236.94   229.54   222.98   
 216.80   211.41   206.41   202.06   198.06   194.23   191.02   188.20   185.54   183.02   
 180.89   178.85   176.81   174.85   173.02   171.16   169.29   167.25   165.04   162.56   
 160.39   158.04   155.78   153.40   151.26   149.09   146.66   144.19   141.59   138.81   
 135.98   133.07   130.12   126.46   122.80   119.34   115.86   112.14   108.70   104.81   
 100.53   96.53    92.62    88.61    84.70    81.42    77.83    72.43    67.34    65.41    
 61.67    58.27    53.70    50.81    47.29    24.85    21.31    21.54    22.97    24.35    
 26.42    29.00    31.69    34.46    37.20    39.69    41.81    43.87    45.72    47.35    
 48.86    50.46    52.57    55.42    59.27    64.95    72.60    82.25    92.84    104.32   
 118.91   
376089.56 374474.89 371015.21 364674.93 351133.67 324945.16 285287.25 238863.63 192539.93 156004.49 
 127580.50 107026.34 91360.02 78850.21 68282.65 60193.85 53686.49 48120.13 43251.84 38846.51 
 34717.19 30988.39 27498.65 24610.87 21730.07 19460.19 17511.37 15819.55 14334.28 13103.56 
 12044.47 11117.36 10364.73 9827.18  9379.21  8943.32  8552.22  8168.40  7827.06  7533.99  
 7274.97  7027.98  6801.30  6593.21  6406.02  6230.84  6057.84  5900.68  5733.04  5556.26  
 5383.27  5225.80  5066.29  4902.39  4734.15  4575.55  4422.23  4276.12  4132.84  3992.04  
 3858.76  3720.43  3560.51  3396.16  3228.26  3058.16  2873.80  2701.43  2529.06  2356.73  
 2187.98  2023.99  1859.87  1709.98  1557.71  1420.85  1286.76  1160.40  1045.11  939.32   
 845.17   754.80   674.64   611.37   559.99   515.35   477.53   441.43   415.85   395.77   
 376.32   354.73   334.10   314.54   298.93   286.15   276.69   268.77   262.97   258.33   
 254.42   250.95   248.09   245.75   244.02   242.89   241.98   241.11   240.59   240.34   
 240.38   240.51   240.60   240.77   240.46   240.14   237.96   235.78   233.59   230.92   
 227.21   222.80   218.05   213.29   208.61   203.92   199.40   195.16   190.93   186.85   
 182.99   179.10   174.91   170.84   166.62   162.36   157.89   152.96   148.18   143.12   
 137.21   131.41   125.77   119.72   114.87   110.04   105.68   101.83   98.70    95.87    
 93.61    88.90    83.65    80.54    78.31    75.63    72.09    67.39    64.33    43.30    
 28.97    30.74    32.53    35.14    38.25    41.46    44.41    47.13    49.25    50.99    
 52.45    53.64    54.81    56.37    58.94    62.97    69.32    78.19    89.04    101.02   
 118.91   
376089.56 374309.71 370970.87 365363.10 351897.59 323716.26 280219.72 231831.20 187784.50 151765.16 
 124676.82 106974.90 89353.20 77217.17 67214.19 59079.27 52346.09 46832.52 42227.25 37930.81 
 34079.64 30540.73 27320.77 24490.97 22135.00 20233.78 18715.94 17552.41 16565.97 15719.45 
 14925.62 14199.43 13497.57 12859.16 12217.34 11595.56 10973.95 10352.34 9789.25  9289.10  
 8842.40  8445.46  8077.02  7738.88  7417.04  7097.34  6816.14  6540.06  6289.30  6058.38  
 5847.44  5641.28  5488.81  5365.28  5242.81  5140.78  5063.78  4973.77  4853.58  4662.16  
 4420.06  4235.84  4021.94  3830.96  3618.58  3399.59  3194.56  2966.42  2740.88  2531.80  
 2336.49  2156.53  1975.97  1804.52  1647.57  1501.97  1367.29  1233.91  1119.67  1005.60  
 909.29   819.69   744.30   680.43   626.98   581.35   538.85   501.30   475.56   453.30   
 431.41   406.55   382.95   360.10   342.01   325.94   313.37   304.33   297.39   292.42   
 289.14   287.64   286.77   286.46   286.72   287.37   288.71   289.54   289.72   290.24   
 290.97   292.19   293.84   295.23   296.32   296.63   296.33   294.74   291.96   288.02   
 283.02   276.77   269.64   262.46   254.76   246.89   239.36   231.92   225.10   218.53   
 212.30   206.51   201.11   196.06   190.97   185.66   173.15   165.45   161.16   156.94   
 152.26   146.95   142.94   138.25   133.55   127.81   122.07   116.97   111.52   108.70   
 105.79   103.57   101.72   100.00   95.40    91.49    90.23    88.03    86.60    77.51    
 74.70    42.09    35.85    38.73    41.69    44.84    48.02    51.09    53.81    55.89    
 57.13    58.16    58.94    59.81    61.62    65.25    71.26    80.00    91.10    103.37   
 118.91   
376089.56 374639.16 372022.35 367470.47 355988.03 329220.34 288133.35 240588.44 193134.20 154596.75 
 126706.17 106789.26 90521.32 77670.65 67636.73 59338.44 52416.67 46841.08 42077.98 37996.78 
 34413.46 31165.23 28247.21 26282.14 24317.07 22363.60 21402.20 20715.22 20275.98 19804.39 
 19236.84 18506.89 17669.54 16708.82 15773.47 14782.36 13811.82 12857.50 12023.93 11259.92 
 10563.90 9937.98  9401.37  8954.36  8539.17  8178.91  7829.89  7483.97  7163.59  6840.68  
 6572.27  6349.95  6171.51  6053.18  6236.13  6621.54  6816.89  7118.34  7140.18  6845.88  
 6459.24  5941.60  5463.27  5030.50  4660.02  4193.07  3860.47  3440.93  3086.22  2840.53  
 2594.83  2349.73  2154.36  1978.36  1811.18  1649.79  1504.09  1359.55  1234.08  1115.17  
 1010.21  911.46   828.64   757.75   697.64   643.15   594.48   551.31   519.88   493.12   
 468.37   441.80   415.07   388.65   367.30   348.75   333.82   322.47   312.82   306.45   
 302.37   300.12   298.95   298.61   298.92   299.67   301.06   302.17   301.46   299.98   
 297.50   295.50   294.07   292.76   291.06   289.22   286.90   283.72   279.96   275.38   
 269.82   264.06   257.79   251.35   245.50   238.29   231.08   225.22   219.55   214.14   
 208.89   203.92   198.98   193.87   188.88   184.06   179.16   171.55   160.83   156.79   
 152.62   148.54   144.45   140.23   135.91   131.87   127.87   123.59   114.46   112.10   
 106.55   107.44   106.45   103.86   102.43   101.96   99.61    97.56    95.46    91.26    
 81.17    76.09    40.94    42.05    44.79    47.43    50.55    53.88    56.84    59.36    
 61.23    62.59    63.39    63.74    64.74    67.05    71.57    79.59    91.20    105.27   
 118.91   
376089.56 374664.05 372115.33 367416.27 355124.65 328288.86 286275.26 237502.63 192625.74 154320.46 
 126294.87 109958.15 93721.37 77484.59 67452.16 59018.22 52156.82 46699.96 41897.66 37809.69 
 34041.03 30599.79 27490.05 24787.09 22622.27 21004.62 19894.57 19155.08 18645.64 18257.13 
 17782.74 17172.99 16427.42 15676.69 14834.86 13992.24 13098.13 12223.41 11508.77 10795.32 
 10081.87 9476.82  8928.56  8460.65  8044.84  7675.64  7325.70  6987.97  6692.12  6426.32  
 6183.11  5971.08  5773.78  5603.90  5517.32  5536.63  5472.58  5366.06  5169.63  4939.54  
 4674.63  4469.50  4245.81  4039.98  3851.97  3602.75  3357.38  3105.23  2871.88  2664.80  
 2475.20  2284.93  2094.37  1914.12  1742.79  1592.40  1449.02  1312.13  1186.13  1078.91  
 971.84   876.12   794.68   727.12   669.35   619.85   573.66   533.37   503.43   479.06   
 455.12   429.60   404.23   378.99   359.38   340.77   326.26   315.07   305.98   299.03   
 293.14   288.90   285.45   281.96   278.95   275.90   273.42   270.59   266.98   263.10   
 258.96   254.95   251.20   247.54   244.05   240.52   236.95   232.82   228.72   224.06   
 219.75   215.56   211.25   206.98   202.83   199.13   195.20   191.11   187.15   183.32   
 179.35   175.43   171.63   167.84   163.96   160.30   153.27   146.21   143.04   139.55   
 136.81   133.68   130.32   126.64   122.95   119.90   117.05   113.95   110.47   100.30   
 98.88    95.71    98.41    97.37    94.85    92.94    91.78    90.51    88.64    82.13    
 78.41    44.38    42.35    44.79    47.19    50.57    54.06    57.31    60.25    62.77    
 64.79    66.33    67.29    67.89    68.78    70.79    74.75    81.65    91.49    103.55   
 118.91   
376089.56 375076.12 372849.95 368297.89 357506.89 334066.68 297512.33 251826.63 206195.53 165953.02 
 133635.04 111110.70 94262.48 80874.03 69700.64 61090.88 54123.74 48422.47 43236.87 38869.28 
 34994.21 31308.11 27912.49 25042.51 22180.41 20009.31 18179.24 16637.80 15323.26 14295.48 
 13474.10 12705.19 12029.28 11500.71 11027.51 10559.79 10045.22 9568.36  9129.98  8727.85  
 8344.51  8022.90  7705.18  7422.38  7141.49  6889.61  6651.71  6444.22  6233.85  6017.58  
 5809.88  5615.20  5437.66  5255.43  5073.54  4895.69  4720.76  4556.35  4400.43  4251.76  
 4105.81  3952.54  3790.72  3617.22  3437.39  3256.14  3062.09  2871.34  2689.13  2507.07  
 2336.67  2169.98  2003.55  1847.47  1688.78  1547.77  1406.22  1274.01  1151.94  1040.34  
 935.91   839.87   753.79   681.67   623.27   572.28   528.95   490.29   459.45   436.52   
 415.48   393.61   370.45   347.03   328.51   311.23   297.04   285.50   275.33   267.02   
 260.09   253.81   248.05   242.28   236.50   230.74   226.19   221.75   217.55   213.53   
 209.74   206.13   202.75   199.55   196.37   193.49   190.37   187.35   184.59   181.47   
 178.36   174.90   171.63   168.60   165.64   162.74   159.76   156.73   153.86   151.09   
 148.40   145.70   142.99   140.06   137.21   134.40   131.55   128.33   125.06   122.37   
 119.02   115.08   110.34   105.72   100.35   97.12    93.98    91.75    83.17    82.21    
 79.60    82.95    80.25    77.98    75.26    72.72    71.52    67.95    66.04    40.23    
 37.37    39.64    41.71    44.79    48.39    52.04    55.59    59.02    62.18    65.02    
 67.57    69.92    71.80    73.00    74.27    76.50    80.26    85.83    93.60    103.51   
 118.91   
376089.56 375181.99 372713.24 367214.05 355256.81 333061.43 298921.46 255626.85 210619.70 169523.53 
 137388.50 118205.47 99133.39 80061.32 69243.04 60505.87 53573.42 47973.74 43056.50 38712.26 
 34789.43 30953.65 27487.32 24281.96 21407.99 18949.33 16890.80 15098.22 13564.04 12250.25 
 11219.36 10191.13 9412.15  8841.57  8408.26  8073.01  7789.23  7536.43  7319.06  7117.02  
 6927.98  6739.46  6565.01  6414.79  6270.02  6131.72  5973.38  5826.13  5683.39  5535.46  
 5385.48  5223.84  5066.51  4923.67  4784.18  4631.46  4470.19  4304.82  4138.21  3964.75  
 3802.91  3640.79  3482.24  3326.54  3174.89  3025.68  2877.29  2726.51  2569.26  2405.94  
 2246.18  2091.28  1944.06  1794.49  1648.52  1510.60  1380.00  1242.23  1125.67  1009.29  
 910.77   818.45   732.59   656.78   592.03   539.58   495.59   459.68   427.56   404.40   
 383.17   361.48   340.83   320.01   301.31   285.58   271.90   260.70   250.69   241.56   
 232.57   224.96   217.93   211.34   205.53   199.81   194.75   189.82   185.28   181.04   
 177.24   173.27   169.69   166.32   163.22   160.30   157.76   155.20   152.40   149.57   
 147.21   144.72   142.19   139.66   137.43   134.99   132.71   130.23   127.71   125.19   
 122.72   119.67   117.20   114.50   111.92   109.30   106.18   103.16   100.06   96.72    
 92.72    89.14    85.41    80.90    76.26    61.55    62.75    59.37    58.09    56.49    
 53.06    50.42    45.81    43.44    36.19    24.04    24.30    27.82    30.41    32.94    
 36.41    40.27    44.08    47.79    51.26    54.59    57.69    60.65    63.29    65.67    
 67.95    70.26    72.58    74.71    76.97    80.31    84.98    91.01    98.32    107.15   
 118.91   
376089.56 375746.74 373391.79 368158.43 357083.73 337344.42 307802.41 266212.15 224621.87 183077.22 
 145955.72 117865.20 96099.39 79706.02 67087.25 57604.07 50085.28 44147.15 39135.32 34874.89 
 31109.73 27714.27 24318.81 20930.36 18171.82 15844.73 13929.40 12320.39 11018.88 10020.90 
 9233.89  8581.73  8054.19  7619.61  7318.76  7064.48  6849.79  6659.74  6485.20  6333.68  
 6196.45  6049.35  5915.64  5795.95  5672.77  5561.38  5426.96  5278.88  5127.57  4975.61  
 4835.73  4700.37  4573.73  4440.33  4315.74  4184.78  4058.34  3941.93  3825.88  3705.69  
 3574.52  3430.49  3283.24  3135.00  3003.48  2866.37  2728.58  2590.78  2452.97  2313.96  
 2174.30  2030.41  1886.86  1752.98  1623.44  1496.83  1368.49  1241.04  1128.56  1021.42  
 919.80   822.71   735.71   659.04   594.36   536.59   486.32   447.33   417.47   392.69   
 373.95   355.02   334.07   314.67   297.44   281.74   268.03   254.23   241.09   227.97   
 217.51   207.27   198.04   189.47   182.04   175.12   168.52   162.46   156.96   152.20   
 147.79   143.90   139.96   136.24   132.30   128.61   125.28   122.07   118.99   115.81   
 112.92   109.84   106.51   103.42   100.88   97.86    94.77    91.82    88.59    85.67    
 81.87    78.43    75.24    71.79    68.62    64.40    60.42    56.32    51.91    49.78    
 45.16    42.80    40.08    36.65    32.60    28.31    14.73    9.62     8.06     8.90     
 10.40    12.15    14.16    16.40    18.86    21.65    24.63    27.80    31.22    34.70    
 38.29    41.86    45.40    48.88    52.26    55.55    58.57    61.35    63.94    66.39    
 68.83    71.22    73.56    76.35    79.67    83.88    89.08    95.22    102.59   110.87   
 118.91   
376089.56 375745.82 373360.65 367901.10 356935.70 337875.20 309231.16 270978.65 227202.20 184842.34 
 145987.17 114742.37 94232.74 73812.41 60482.23 50216.55 42313.93 36145.65 31242.19 27063.98 
 23637.57 20650.08 17884.53 15247.79 13004.85 11654.78 10311.76 8968.74  8294.69  7804.80  
 7414.23  7103.74  6807.63  6556.67  6346.30  6171.67  6008.59  5861.69  5735.38  5617.71  
 5515.79  5422.05  5319.96  5202.52  5077.70  4929.10  4758.99  4587.90  4422.43  4273.90  
 4128.32  3995.61  3870.26  3749.39  3621.74  3495.22  3376.36  3264.00  3151.69  3041.79  
 2923.06  2806.99  2695.05  2585.55  2467.65  2353.68  2241.75  2131.86  2016.35  1903.21  
 1786.87  1677.35  1564.56  1449.84  1333.49  1224.35  1125.24  1026.22  934.92   847.75   
 766.56   690.34   619.02   554.41   496.76   447.75   402.92   366.22   338.72   317.02   
 297.75   281.96   263.26   247.83   230.38   215.17   202.62   189.92   176.78   164.68   
 153.41   143.45   134.27   126.26   118.25   110.24   104.02   97.95    92.93    87.87    
 83.04    78.69    74.77    70.34    66.47    62.51    58.77    55.19    51.47    48.01    
 44.54    41.18    37.77    34.46    31.33    28.19    24.86    21.23    17.33    13.26    
 9.44     6.71     4.94     3.72     3.24     3.28     3.47     3.69     3.94     4.23     
 4.56     4.94     5.40     5.94     6.57     7.39     8.35     9.46     10.72    12.18    
 13.80    15.61    17.60    19.82    22.28    24.87    27.69    30.66    33.69    36.84    
 40.06    43.31    46.55    49.88    53.08    56.28    59.44    62.60    65.61    68.37    
 71.20    74.10    77.17    80.42    84.31    89.00    94.67    101.40   109.01   117.46   
 118.91   
376089.56 375632.41 373544.07 369275.78 360462.09 344133.06 316070.05 279146.72 235952.05 190562.07 
 147542.56 112997.27 90313.69 67761.54 54174.56 43787.49 35675.45 29618.58 24756.17 21034.08 
 18255.60 15735.48 13504.81 11513.01 10127.39 8748.40  7831.49  7110.64  6566.64  6182.29  
 5849.22  5544.99  5260.60  5013.04  4789.79  4589.10  4405.38  4228.21  4053.58  3901.94  
 3754.18  3613.22  3468.77  3316.32  3162.58  3012.41  2853.91  2694.93  2546.70  2406.55  
 2270.43  2139.16  2021.46  1902.34  1794.34  1692.04  1592.99  1496.36  1407.73  1316.79  
 1228.61  1145.79  1063.02  980.25   901.50   826.10   753.10   678.46   610.26   543.55   
 483.98   425.90   371.11   321.47   277.46   238.57   203.00   169.99   142.32   122.07   
 101.89   81.72    66.74    54.01    44.80    37.76    15.12    7.47     3.94     2.04     
 1.90     1.87     1.86     1.86     1.91     1.97     2.04     2.12     2.20     2.29     
 2.38     2.48     2.59     2.69     2.80     2.92     3.04     3.16     3.28     3.42     
 3.56     3.72     3.88     4.05     4.24     4.43     4.62     4.84     5.06     5.30     
 5.52     5.77     6.03     6.28     6.54     6.80     7.07     7.34     7.63     7.91     
 8.21     8.52     8.84     9.21     9.60     10.08    10.60    11.19    11.90    12.78    
 13.78    15.06    16.66    18.55    20.83    23.64    26.99    31.15    36.41    42.57    
 49.65    57.43    66.10    75.90    86.18    96.89    108.12   119.41   130.70   141.79   
 152.10   161.79   170.58   178.29   184.88   190.18   194.29   196.93   198.07   197.60   
 195.66   192.33   187.81   182.32   176.07   168.99   160.99   152.41   143.52   134.09   
 118.91   
376089.56 375838.08 374076.92 371021.62 364322.52 351411.81 327574.42 294215.60 250141.05 206045.77 
 159351.09 122281.87 93494.68 70807.51 55308.88 44434.39 35689.56 29762.76 23835.96 17932.83 
 15213.63 12815.52 10624.40 8621.52  6909.28  5816.03  4887.75  4140.35  3607.18  3187.96  
 2870.39  2552.83  2235.81  1987.30  1756.70  1566.84  1398.29  1242.46  1071.03  918.04   
 784.21   658.20   544.82   445.47   361.38   301.49   241.60   181.89   142.21   113.16   
 93.39    76.81    64.79    55.83    48.22    41.05    36.20    32.44    29.27    26.74    
 24.50    22.69    21.25    20.05    19.08    18.30    17.51    16.52    15.55    14.66    
 14.26    14.17    14.25    14.28    14.46    14.67    14.83    14.96    14.98    14.89    
 14.50    13.56    11.69    8.50     4.88     1.73     1.62     1.67     1.74     1.82     
 1.90     1.98     2.07     2.19     2.30     2.42     2.54     2.67     2.80     2.95     
 3.10     3.25     3.40     3.55     3.72     3.89     4.07     4.25     4.44     4.63     
 4.83     5.05     5.27     5.49     5.71     5.95     6.21     6.47     6.74     7.00     
 7.27     7.55     7.83     8.12     8.40     8.69     8.98     9.29     9.59     9.92     
 10.27    10.65    11.05    11.52    12.04    12.63    13.30    14.07    14.95    16.05    
 17.29    18.73    20.46    22.46    24.89    27.78    31.27    35.44    40.40    46.42    
 53.28    61.21    69.89    79.36    89.70    100.38   111.61   122.68   133.90   144.64   
 154.77   164.15   172.44   179.77   185.88   190.88   194.49   196.83   197.77   197.12   
 195.11   191.82   187.45   182.07   175.96   169.07   160.84   151.94   142.61   132.60   
 118.91   
376089.56 375713.49 374055.73 371360.39 366212.08 355591.15 335965.37 302546.80 256179.88 195106.08 
 139916.85 110609.13 81596.16 52583.20 40712.74 30693.95 22160.47 17647.61 14293.35 11629.79 
 8974.50  6319.21  4389.11  3328.85  2405.47  1069.08  814.39   571.09   426.03   334.19   
 247.63   191.11   159.52   135.31   117.72   100.21   86.50    74.69    66.02    58.59    
 51.65    45.93    40.89    36.81    33.06    30.07    27.37    25.43    23.29    21.69    
 20.18    18.45    16.35    14.44    12.54    10.88    9.77     8.93     8.23     7.62     
 7.00     6.60     6.46     6.34     6.19     6.12     6.07     5.96     5.88     5.81     
 5.72     5.65     5.53     5.39     5.26     5.11     4.85     4.46     4.02     3.62     
 3.15     2.66     2.15     1.99     1.96     1.97     2.04     2.13     2.22     2.32     
 2.42     2.54     2.66     2.80     2.94     3.11     3.27     3.44     3.61     3.80     
 3.99     4.17     4.37     4.57     4.79     5.00     5.22     5.45     5.68     5.92     
 6.16     6.41     6.66     6.92     7.18     7.45     7.73     8.00     8.27     8.56     
 8.85     9.13     9.43     9.72     10.04    10.34    10.67    11.03    11.41    11.80    
 12.23    12.69    13.20    13.73    14.40    15.17    16.01    16.97    18.02    19.25    
 20.67    22.31    24.18    26.35    28.89    31.89    35.47    39.66    44.61    50.60    
 57.68    65.59    74.35    83.79    94.53    105.91   117.47   128.85   140.42   151.98   
 162.62   172.05   180.65   188.00   193.73   197.98   200.96   202.06   201.42   199.46   
 196.32   192.21   187.19   181.66   175.48   168.11   159.89   151.16   141.59   131.30   
 118.91   
376089.56 375881.23 374601.23 372708.87 368565.97 359939.45 327994.11 276142.29 224290.50 172489.91 
 127313.84 83924.65 55735.19 42348.06 31249.66 20185.52 12871.02 9908.64  5711.26  1542.15  
 1172.30  828.02   517.77   352.67   286.12   219.57   153.41   130.28   103.31   80.39    
 68.08    59.62    52.79    47.31    43.01    38.75    35.25    32.28    29.44    27.03    
 25.02    22.87    20.76    18.76    16.40    14.11    12.23    10.78    9.66     8.81     
 8.07     7.35     6.74     6.20     5.79     5.45     5.13     4.88     4.66     4.46     
 4.24     4.05     3.87     3.73     3.60     3.48     3.37     3.21     3.11     3.03     
 2.95     2.87     2.77     2.65     2.52     2.40     2.30     2.21     2.13     2.05     
 1.99     1.99     2.01     2.04     2.10     2.16     2.24     2.33     2.42     2.51     
 2.61     2.72     2.82     2.95     3.09     3.22     3.37     3.53     3.69     3.86     
 4.05     4.22     4.42     4.61     4.82     5.03     5.25     5.47     5.69     5.92     
 6.18     6.43     6.70     6.96     7.23     7.51     7.80     8.10     8.40     8.70     
 9.00     9.33     9.67     10.01    10.37    10.74    11.14    11.57    12.06    12.56    
 13.10    13.67    14.31    15.01    15.77    16.64    17.65    18.75    19.92    21.26    
 22.83    24.55    26.45    28.66    31.17    34.11    37.49    41.52    46.19    51.89    
 58.49    66.24    74.89    84.63    95.34    106.79   118.96   131.15   143.66   155.93   
 167.46   178.11   187.39   195.36   201.25   205.38   207.61   207.80   206.28   203.82   
 199.60   194.23   187.88   181.10   173.53   165.59   156.84   147.81   138.10   127.53   
 118.91   
376089.56 375791.78 374802.73 372584.03 368222.44 337725.82 286378.90 243588.31 197560.62 143930.83 
 109668.19 75632.62 41597.03 25752.40 16784.95 11589.98 6433.58  1277.19  972.09   727.55   
 442.66   231.25   216.45   137.31   123.91   111.24   98.58    73.15    70.25    52.55    
 44.08    39.37    33.32    30.90    26.84    24.88    22.34    20.16    17.68    15.46    
 13.25    11.89    10.68    10.02    9.62     9.16     8.33     7.78     7.78     7.23     
 6.95     6.47     5.90     5.52     4.67     4.19     4.02     3.88     3.75     3.59     
 3.43     3.28     3.15     3.00     2.87     2.75     2.65     2.56     2.46     2.37     
 2.29     2.22     2.15     2.09     2.04     2.00     1.96     1.94     1.91     1.92     
 1.93     1.94     1.95     1.97     2.02     2.09     2.17     2.25     2.35     2.45     
 2.55     2.67     2.79     2.91     3.06     3.21     3.37     3.52     3.70     3.88     
 4.06     4.26     4.46     4.67     4.90     5.12     5.37     5.61     5.88     6.15     
 6.42     6.71     7.01     7.31     7.61     7.93     8.25     8.59     8.93     9.27     
 9.62     9.97     10.35    10.74    11.15    11.55    12.00    12.49    12.99    13.51    
 14.11    14.76    15.51    16.34    17.25    18.24    19.31    20.56    21.94    23.45    
 25.09    26.90    28.99    31.28    33.86    36.83    40.37    44.30    48.96    54.61    
 61.46    69.30    78.11    87.79    98.84    110.71   122.89   135.29   148.33   161.49   
 173.73   184.69   194.62   202.90   208.85   212.62   214.27   213.63   211.22   207.20   
 201.95   195.38   188.28   180.40   172.21   163.66   154.60   145.02   134.86   124.30   
 118.91   
376089.56 376003.39 375155.12 373102.14 368671.98 325422.50 277797.61 230172.68 182480.89 126051.28 
 91885.62 54907.63 41390.52 27873.41 14356.30 963.57   1026.04  485.00   299.09   391.74   
 293.16   194.77   121.47   100.22   60.82    36.38    26.14    20.51    17.75    15.79    
 14.65    13.79    13.21    12.39    11.66    10.69    9.36     8.07     7.00     6.21     
 5.57     5.09     4.66     4.27     3.88     3.61     3.42     3.32     3.21     3.08     
 2.96     2.85     2.77     2.69     2.61     2.54     2.48     2.43     2.36     2.32     
 2.26     2.22     2.20     2.17     2.16     2.11     2.07     2.04     2.02     1.99     
 1.97     1.94     1.92     1.91     1.91     1.90     1.90     1.89     1.88     1.89     
 1.91     1.94     1.98     2.02     2.08     2.14     2.20     2.27     2.34     2.42     
 2.50     2.60     2.71     2.81     2.93     3.06     3.20     3.36     3.52     3.71     
 3.91     4.12     4.35     4.59     4.84     5.11     5.40     5.69     5.99     6.28     
 6.59     6.91     7.23     7.53     7.83     8.15     8.49     8.84     9.20     9.57     
 9.93     10.32    10.75    11.18    11.63    12.12    12.62    13.17    13.71    14.28    
 14.90    15.57    16.32    17.14    18.00    19.00    20.09    21.28    22.53    23.95    
 25.59    27.36    29.33    31.60    34.09    37.09    40.43    44.27    48.84    54.40    
 61.01    68.91    77.90    88.22    99.64    111.59   124.28   137.00   150.10   163.04   
 175.57   187.63   198.34   207.46   214.23   218.71   220.78   220.48   218.08   213.85   
 208.36   201.65   194.38   186.10   177.41   168.57   159.20   149.35   139.02   128.11   
 118.91   
376089.56 375828.95 374640.97 372139.36 367252.88 316313.04 267212.86 222085.72 168368.53 119912.41 
 84997.50 50239.88 26923.56 6462.19  523.47   324.93   184.61   44.29    31.01    23.78    
 20.37    17.06    14.66    12.91    11.57    10.32    9.22     8.27     7.64     7.37     
 7.65     7.92     8.00     7.63     7.17     6.77     6.08     5.65     5.41     5.29     
 5.31     5.03     4.75     4.34     4.05     3.63     3.47     3.38     3.23     3.05     
 2.79     2.66     2.61     2.60     2.56     2.55     2.53     2.53     2.48     2.43     
 2.42     2.41     2.41     2.41     2.41     2.41     2.41     2.41     2.39     2.39     
 2.39     2.39     2.39     2.39     2.39     2.39     2.40     2.42     2.43     2.44     
 2.45     2.46     2.48     2.49     2.61     2.79     2.93     3.06     3.13     3.19     
 3.25     3.34     3.46     3.55     3.59     3.65     3.73     3.82     3.96     4.12     
 4.31     4.51     4.75     5.01     5.29     5.58     5.90     6.22     6.53     6.84     
 7.13     7.41     7.68     7.94     8.20     8.48     8.78     9.11     9.47     9.85     
 10.27    10.70    11.16    11.63    12.13    12.63    13.22    13.82    14.48    15.16    
 15.85    16.59    17.37    18.18    19.04    19.96    20.97    22.06    23.30    24.65    
 26.17    27.82    29.79    32.03    34.55    37.56    41.08    45.07    49.71    55.43    
 62.50    70.83    80.39    90.87    102.20   114.85   127.75   140.56   153.53   166.57   
 178.90   190.54   201.54   210.41   217.17   221.35   222.98   222.29   219.49   214.78   
 208.88   201.92   194.30   186.25   177.91   169.22   160.51   151.15   141.26   130.18   
 118.91   
