IESNA:LM-63-2002
[TEST] 1
[TESTLAB] AOK
[TESTDATE] 2022-06-02
[ISSUEDATE] 2022-06-02 15:15:07
[NEARFIELD] 
[LAMPPOSITION] 0,0
[OTHER] EVERFINE GO-2000A_V1 SYSTEM
[MANUFAC] AOK
[LUMCAT] A
[LUMINAIRE] AOK-1200WiSF-HV-S35-00-5070-2030D-P
[LAMPCAT] B
[LAMP] 3535
[BALLAST] E
[BALLASTCAT] F
[OTHER] 
[OTHER] Gamma(deg)    Fz(lm)      Ft(lm)     %Lum    %Lamp
[OTHER]   0- 10     49965.55    49965.55    30.62    30.62
[OTHER]  10- 20     60941.46   110907.02    67.97    67.97
[OTHER]  20- 30     25350.33   136257.35    83.51    83.51
[OTHER]  30- 40     10615.30   146872.64    90.02    90.02
[OTHER]  40- 50      6038.34   152910.98    93.72    93.72
[OTHER]  50- 60      4471.87   157382.85    96.46    96.46
[OTHER]  60- 70      2812.30   160195.15    98.18    98.18
[OTHER]  70- 80      1340.59   161535.74    99.00    99.00
[OTHER]  80- 90       522.79   162058.52    99.32    99.32
[OTHER]  90-100       266.08   162324.61    99.49    99.49
[OTHER] 100-110       187.57   162512.18    99.60    99.60
[OTHER] 110-120       146.14   162658.32    99.69    99.69
[OTHER] 120-130       116.69   162775.01    99.76    99.76
[OTHER] 130-140        89.27   162864.28    99.82    99.82
[OTHER] 140-150        77.25   162941.53    99.87    99.87
[OTHER] 150-160        90.08   163031.61    99.92    99.92
[OTHER] 160-170        92.98   163124.59    99.98    99.98
[OTHER] 170-180        35.50   163160.09   100.00   100.00
[OTHER] 
TILT=NONE
1 1.6316e+005 1 181 25 1 2 0.150 0.200 0.000
1.000 1 1191.98
0.0    1.0    2.0    3.0    4.0    5.0    6.0    7.0    8.0    9.0    
 10.0   11.0   12.0   13.0   14.0   15.0   16.0   17.0   18.0   19.0   
 20.0   21.0   22.0   23.0   24.0   25.0   26.0   27.0   28.0   29.0   
 30.0   31.0   32.0   33.0   34.0   35.0   36.0   37.0   38.0   39.0   
 40.0   41.0   42.0   43.0   44.0   45.0   46.0   47.0   48.0   49.0   
 50.0   51.0   52.0   53.0   54.0   55.0   56.0   57.0   58.0   59.0   
 60.0   61.0   62.0   63.0   64.0   65.0   66.0   67.0   68.0   69.0   
 70.0   71.0   72.0   73.0   74.0   75.0   76.0   77.0   78.0   79.0   
 80.0   81.0   82.0   83.0   84.0   85.0   86.0   87.0   88.0   89.0   
 90.0   91.0   92.0   93.0   94.0   95.0   96.0   97.0   98.0   99.0   
 100.0  101.0  102.0  103.0  104.0  105.0  106.0  107.0  108.0  109.0  
 110.0  111.0  112.0  113.0  114.0  115.0  116.0  117.0  118.0  119.0  
 120.0  121.0  122.0  123.0  124.0  125.0  126.0  127.0  128.0  129.0  
 130.0  131.0  132.0  133.0  134.0  135.0  136.0  137.0  138.0  139.0  
 140.0  141.0  142.0  143.0  144.0  145.0  146.0  147.0  148.0  149.0  
 150.0  151.0  152.0  153.0  154.0  155.0  156.0  157.0  158.0  159.0  
 160.0  161.0  162.0  163.0  164.0  165.0  166.0  167.0  168.0  169.0  
 170.0  171.0  172.0  173.0  174.0  175.0  176.0  177.0  178.0  179.0  
 180.0  
0.0    15.0   30.0   45.0   60.0   75.0   90.0   105.0  120.0  135.0  
 150.0  165.0  180.0  195.0  210.0  225.0  240.0  255.0  270.0  285.0  
 300.0  315.0  330.0  345.0  360.0  
651211.69 652264.53 646550.88 635199.13 613936.50 546808.48 476876.62 402918.45 320435.47 258962.46 
 195741.27 145378.90 122108.01 99138.12 76168.23 68500.29 62425.25 57262.61 45438.32 38579.72 
 29305.71 18527.33 10685.74 6293.43  1939.49  1284.66  669.54   54.41    38.22    27.89    
 24.10    20.85    18.11    16.11    14.49    12.91    11.91    11.24    10.63    10.31    
 10.08    9.65     9.17     9.15     8.74     8.32     8.07     7.56     6.86     6.54     
 6.48     6.49     6.08     5.82     5.57     5.50     5.49     5.32     5.32     5.21     
 5.11     5.08     5.06     5.02     5.01     5.01     4.99     4.96     4.94     4.93     
 4.93     4.93     4.93     4.93     4.93     4.93     4.94     4.94     4.96     4.99     
 5.04     5.07     5.09     5.11     5.16     5.22     5.28     5.36     5.49     5.62     
 5.77     5.95     6.11     6.29     6.48     6.71     6.96     7.23     7.51     7.81     
 8.12     8.47     8.82     9.19     9.58     10.00    10.44    10.89    11.35    11.85    
 12.35    12.86    13.38    13.95    14.56    15.18    15.82    16.49    17.22    17.99    
 18.80    19.65    20.48    21.37    22.32    23.32    24.34    25.48    26.70    28.01    
 29.43    30.94    32.58    34.49    36.75    39.40    42.48    46.06    50.21    55.03    
 60.47    66.71    73.57    81.17    89.44    98.67    109.03   120.83   134.36   150.07   
 168.17   188.60   211.42   239.22   267.08   296.93   327.99   359.14   391.56   423.69   
 454.03   482.38   509.33   534.29   555.17   571.29   583.00   589.02   589.70   585.69   
 577.18   564.91   551.15   534.29   516.86   497.38   476.48   454.21   430.14   403.29   
 369.71   
651211.69 656354.31 653324.62 646406.60 632215.55 596626.61 526131.35 465317.46 393205.79 321882.84 
 262064.94 202334.75 153276.28 108151.98 90741.85 80072.93 71419.37 64468.54 57958.73 48435.70 
 39200.13 28903.27 18644.37 13021.41 7032.78  3848.52  690.27   364.84   297.53   230.22   
 163.13   126.50   107.39   100.79   85.62    67.76    59.24    60.90    49.47    40.71    
 37.30    34.16    32.11    27.05    22.92    20.39    17.91    16.39    14.93    13.99    
 12.77    11.24    10.21    9.65     9.33     9.13     9.36     9.44     9.24     8.93     
 8.50     8.06     7.69     7.37     7.08     6.80     6.66     6.53     6.42     6.29     
 6.17     6.04     5.90     5.76     5.64     5.54     5.44     5.32     5.22     5.13     
 5.04     4.97     4.97     4.99     5.03     5.11     5.20     5.30     5.42     5.56     
 5.70     5.88     5.99     6.16     6.37     6.60     6.85     7.12     7.42     7.75     
 8.06     8.39     8.76     9.12     9.51     9.90     10.32    10.78    11.26    11.75    
 12.25    12.77    13.31    13.88    14.45    15.08    15.74    16.42    17.12    17.88    
 18.68    19.53    20.44    21.35    22.34    23.37    24.47    25.64    26.88    28.23    
 29.74    31.35    33.18    35.32    37.74    40.56    43.88    47.77    52.02    56.93    
 62.60    68.75    75.57    83.05    91.36    100.70   111.05   123.94   136.85   152.53   
 170.24   190.66   212.72   237.98   265.27   294.42   324.81   355.30   386.90   417.55   
 447.17   475.80   502.37   527.22   548.26   565.01   576.29   582.47   583.24   579.40   
 571.45   560.01   546.21   530.40   513.15   494.56   474.36   453.10   430.17   405.57   
 369.71   
651211.69 656969.77 655763.50 650678.88 641217.88 626269.95 579841.09 518276.81 458979.47 394851.58 
 326335.31 272683.74 215687.34 165806.30 128516.91 106361.29 84362.03 73804.78 64714.84 57061.23 
 50849.28 43233.84 32408.79 23585.03 16099.55 11775.98 7486.20  3196.41  1713.56  1263.24  
 825.43   387.61   249.62   174.64   134.73   107.39   80.19    65.43    55.57    48.00    
 41.96    36.77    33.22    30.69    28.56    26.67    25.35    24.26    23.17    22.37    
 21.60    20.49    18.90    16.48    13.79    12.57    12.38    12.04    11.73    11.54    
 11.31    11.13    11.04    11.00    10.81    10.50    10.14    9.77     9.43     9.11     
 8.82     8.51     8.15     7.78     7.39     7.01     6.59     6.19     5.84     5.54     
 5.27     5.06     4.92     4.89     4.90     4.99     5.09     5.21     5.36     5.52     
 5.68     5.87     6.08     6.32     6.59     6.87     7.14     7.42     7.73     8.06     
 8.41     8.79     9.18     9.59     10.01    10.45    10.91    11.38    11.88    12.39    
 12.90    13.43    14.01    14.60    15.22    15.88    16.56    17.28    18.05    18.84    
 19.66    20.53    21.48    22.47    23.48    24.57    25.82    27.20    28.70    30.37    
 32.24    34.37    36.87    39.71    42.94    46.50    50.48    55.00    60.03    65.57    
 71.63    78.26    85.73    94.01    103.26   113.85   125.71   139.06   153.94   171.00   
 190.27   211.15   233.45   258.78   284.15   311.31   338.98   366.66   394.42   422.68   
 449.42   474.59   497.94   518.49   535.12   547.75   556.00   560.02   559.89   556.05   
 549.14   539.48   528.36   515.08   500.00   483.08   464.53   444.75   423.67   400.70   
 369.71   
651211.69 657790.93 659826.56 656681.46 650887.19 639583.91 621337.79 596853.94 542283.13 489021.97 
 432071.87 378549.64 315240.86 266122.34 217101.73 178968.27 141363.59 115999.51 84954.22 71938.53 
 61622.04 53166.97 45770.94 39727.75 34635.77 29375.01 24114.24 18853.19 13575.64 9723.93  
 6908.81  4479.67  3181.42  1887.86  1176.07  813.07   534.59   369.92   306.80   243.68   
 180.82   145.08   113.78   94.09    78.47    68.36    60.66    53.92    48.30    44.38    
 41.90    39.71    37.42    35.58    33.80    31.70    29.74    27.72    25.55    21.42    
 16.66    16.06    15.75    15.13    14.49    13.92    13.38    12.94    12.50    12.07    
 11.63    11.18    10.71    10.21    9.67     9.05     8.38     7.69     6.94     6.22     
 5.60     5.07     4.64     4.41     4.43     4.53     4.66     4.81     4.97     5.16     
 5.36     5.59     5.81     6.07     6.35     6.64     6.96     7.29     7.66     8.02     
 8.39     8.78     9.20     9.65     10.11    10.59    11.10    11.62    12.17    12.72    
 13.30    13.87    14.49    15.13    15.78    16.47    17.19    17.92    18.68    19.51    
 20.42    21.45    22.54    23.65    24.89    26.28    27.86    29.61    31.54    33.69    
 36.07    38.73    41.69    44.95    48.53    52.47    56.96    61.90    67.25    73.32    
 80.28    87.93    96.58    106.16   116.92   130.08   143.26   158.29   174.46   192.45   
 211.89   232.33   253.68   276.92   300.56   324.85   349.72   373.96   398.69   422.24   
 444.41   464.60   482.78   498.91   511.77   521.93   528.90   532.83   533.81   532.33   
 528.14   521.62   512.66   501.39   488.34   473.66   457.23   440.10   421.44   401.72   
 369.71   
651211.69 656788.37 659943.56 659150.65 652823.98 640278.87 623723.31 604603.81 582485.09 555506.22 
 523685.85 471678.91 417543.98 374077.28 322099.34 277172.93 236479.18 193121.95 161103.78 132648.73 
 107956.61 83309.08 66550.21 55505.49 47649.83 38533.28 33623.63 29643.93 26280.00 22952.65 
 19670.97 17016.02 14409.81 12142.06 9732.16  7320.61  5682.52  4196.66  3216.97  2461.83  
 1881.48  1389.71  1109.23  831.29   553.36   414.90   308.94   245.91   199.82   163.73   
 136.68   119.47   102.38   90.69    80.75    73.11    66.60    60.38    55.32    50.83    
 46.96    43.56    40.49    38.28    36.36    34.23    29.89    21.39    19.02    18.08    
 17.22    16.45    15.72    15.00    14.29    13.56    12.72    11.78    10.76    9.57     
 8.23     6.94     5.85     5.09     4.81     4.84     4.98     5.14     5.32     5.50     
 5.71     5.94     6.18     6.47     6.76     7.08     7.42     7.77     8.14     8.54     
 8.94     9.37     9.82     10.28    10.77    11.28    11.79    12.31    12.89    13.48    
 14.09    14.73    15.40    16.09    16.81    17.57    18.37    19.20    20.11    21.08    
 22.11    23.20    24.45    25.81    27.28    28.82    30.63    32.62    34.77    37.19    
 39.79    42.67    45.83    49.42    53.51    58.09    63.24    69.04    75.56    82.92    
 91.25    100.57   110.97   122.44   135.02   149.02   164.39   180.41   197.47   215.91   
 235.80   257.15   278.52   299.23   319.84   341.04   362.43   382.78   402.04   420.39   
 437.91   453.23   466.90   479.03   489.24   497.41   503.45   507.29   509.05   508.48   
 505.64   500.70   493.49   484.79   474.26   462.53   449.53   434.90   419.04   401.76   
 369.71   
651211.69 655601.14 658930.38 659727.18 655926.81 644319.12 627834.33 609028.15 586236.60 560170.59 
 532678.41 503551.99 472766.53 437393.61 399872.95 359016.09 316560.54 276219.10 235877.65 195597.38 
 163571.40 135853.10 111348.20 93884.31 81804.57 72193.46 63460.75 55074.19 48659.73 43353.57 
 38190.64 33130.54 29234.32 25338.09 21448.96 18408.32 15538.17 13348.32 11502.54 9895.71  
 8658.31  7676.55  6868.96  6163.38  5578.63  5045.46  4590.76  4157.40  3760.24  3365.25  
 2977.22  2589.19  2201.02  1799.20  1413.15  1061.46  801.04   612.75   481.33   393.74   
 324.81   272.53   220.41   185.11   157.35   135.18   117.90   101.77   88.14    75.99    
 65.78    57.66    51.19    46.50    42.33    38.65    32.99    24.51    22.50    20.74    
 18.90    16.74    13.74    9.90     5.85     4.44     4.50     4.59     4.72     4.87     
 5.03     5.23     5.43     5.68     5.93     6.21     6.52     6.84     7.19     7.57     
 7.95     8.36     8.81     9.32     9.83     10.36    10.90    11.48    12.08    12.71    
 13.35    14.03    14.73    15.47    16.22    17.01    17.85    18.71    19.61    20.65    
 21.72    22.91    24.22    25.61    27.17    28.88    30.81    32.94    35.27    37.88    
 40.72    43.90    47.54    51.54    56.01    61.03    67.02    73.61    80.81    89.12    
 98.71    109.23   121.69   134.16   148.15   163.37   179.36   196.37   214.19   232.74   
 251.61   270.66   289.35   308.49   327.17   345.76   363.93   381.15   398.28   414.30   
 429.37   443.39   456.26   468.08   478.48   487.63   494.83   500.34   503.89   505.47   
 504.96   502.66   498.61   492.20   484.10   474.12   462.59   449.46   434.61   419.28   
 369.71   
651211.69 652595.54 652993.70 651942.31 647982.06 637550.21 621806.90 604113.61 582400.96 558589.79 
 532411.21 504618.70 475837.67 442030.72 405514.31 366705.92 323196.99 279138.73 238786.45 198514.23 
 166126.84 139867.28 118471.63 101901.48 88722.05 78239.19 69075.67 61594.05 55294.39 49781.81 
 44727.45 39858.97 35189.81 31032.38 26988.17 23739.81 20498.95 17908.59 15851.53 14179.05 
 12917.52 12000.55 11276.66 10639.15 10129.71 9723.39  9384.39  9053.43  8699.68  8300.73  
 7845.79  7347.71  6809.68  6272.78  5778.78  5333.94  4927.00  4532.11  4167.17  3813.21  
 3494.15  3189.69  2908.10  2674.72  2441.34  2208.26  2004.09  1811.50  1628.66  1459.53  
 1301.96  1163.49  1031.24  903.46   782.22   674.19   574.83   488.60   411.77   347.36   
 291.40   242.92   194.58   158.78   126.70   79.86    35.81    7.82     3.28     2.84     
 2.60     2.54     2.48     2.39     2.30     2.19     2.07     1.82     1.66     1.66     
 1.67     1.71     1.75     1.81     1.88     1.95     2.03     2.12     2.21     2.32     
 2.42     2.53     2.65     2.78     2.92     3.05     3.20     3.35     3.52     3.71     
 3.91     4.13     4.36     4.62     4.92     5.25     5.62     6.05     6.52     7.01     
 7.58     8.22     8.95     9.78     10.77    11.85    13.08    14.56    16.18    17.97    
 20.06    22.35    24.83    27.64    30.62    34.00    37.57    41.38    45.41    49.64    
 54.10    58.61    63.37    68.39    73.52    78.93    84.57    90.48    96.85    103.51   
 110.47   118.04   125.62   133.27   141.13   149.67   159.05   169.25   180.12   191.84   
 204.52   218.05   232.66   248.54   264.99   282.06   299.61   317.24   334.55   351.78   
 369.71   
651211.69 652245.66 652178.72 650487.91 646117.01 636453.72 620765.54 603218.65 581341.59 556798.27 
 528666.52 498476.56 464627.71 428645.65 390843.77 351111.67 311847.88 274204.97 237065.54 199255.77 
 166128.37 139834.95 119419.02 107323.76 95298.22 83272.70 75553.42 68962.79 62886.72 57051.70 
 51646.15 46514.50 41441.58 36785.38 32425.39 28679.39 25261.15 22232.10 19749.69 17785.16 
 16252.82 15076.86 14151.61 13472.33 12892.74 12400.27 11927.29 11518.26 11153.10 10788.27 
 10423.45 10071.31 9693.09  9278.14  8831.69  8357.98  7865.01  7377.21  6919.12  6458.22  
 6044.49  5660.34  5310.29  4978.80  4667.62  4361.96  4070.78  3791.52  3515.03  3251.86  
 3004.03  2779.91  2566.82  2360.08  2161.75  1980.97  1816.70  1656.38  1508.26  1376.59  
 1257.24  1146.73  1047.28  947.91   865.13   793.44   730.72   676.60   629.56   587.16   
 548.85   512.26   478.39   446.62   417.99   391.25   366.79   344.85   324.27   306.95   
 291.77   277.24   263.36   249.61   236.64   223.60   210.22   196.84   182.20   166.77   
 150.38   132.73   114.15   95.56    76.98    63.39    53.04    45.96    39.49    24.82    
 6.99     3.69     3.57     3.73     3.91     4.11     4.34     4.62     4.94     5.29     
 5.69     6.15     6.66     7.29     8.03     8.91     9.90     11.08    12.45    13.99    
 15.74    17.73    19.95    22.41    25.26    28.39    31.64    35.06    38.71    42.57    
 46.64    50.74    54.18    58.21    62.73    67.26    71.81    76.44    81.31    86.32    
 91.66    97.35    103.41   109.78   116.84   124.83   133.58   143.09   153.45   167.18   
 181.20   193.64   209.98   229.02   248.08   268.09   288.61   309.99   330.59   351.60   
 369.71   
651211.69 651492.97 649727.40 646623.54 641634.86 633092.64 619860.30 601214.92 576492.45 546055.16 
 508587.71 468618.79 427095.48 384578.44 344016.57 306599.51 271164.54 237929.57 204754.01 176261.18 
 151664.48 130646.32 113904.05 101190.40 90917.34 82657.76 75264.82 69320.97 63591.83 57914.52 
 52470.59 46749.51 41500.64 36781.77 32371.58 28335.04 25409.51 22483.99 19569.83 17596.37 
 16123.67 15085.02 14347.11 13779.04 13326.63 12918.59 12524.02 12174.16 11834.29 11502.25 
 11187.79 10877.42 10559.65 10228.48 9876.29  9497.05  9120.70  8729.18  8311.21  7880.49  
 7466.31  7033.76  6594.55  6170.99  5780.42  5424.33  5073.70  4734.60  4403.21  4079.48  
 3759.37  3455.86  3170.94  2911.09  2677.17  2443.25  2209.56  1998.64  1815.74  1650.47  
 1501.73  1366.24  1245.59  1144.17  1056.68  978.21   910.34   854.32   802.79   755.53   
 717.25   680.51   642.83   608.74   576.37   547.33   522.25   499.26   479.61   460.76   
 444.38   429.58   415.86   403.87   391.93   380.86   371.16   361.58   353.21   345.06   
 337.85   331.37   324.78   318.36   312.88   307.23   301.75   295.31   288.80   282.41   
 275.74   268.96   260.84   253.54   246.65   239.30   228.30   217.28   203.86   187.22   
 164.32   130.82   89.37    57.06    36.76    25.67    13.02    7.17     7.91     9.04     
 10.40    12.04    13.86    15.99    18.34    20.99    23.91    27.04    30.42    34.11    
 38.00    42.09    46.52    51.00    55.31    59.92    64.68    69.51    74.55    79.70    
 84.96    90.31    95.85    101.89   108.09   114.85   122.64   131.03   140.28   152.55   
 163.94   177.01   193.26   211.66   231.34   252.11   274.67   297.92   322.20   346.53   
 369.71   
651211.69 649473.68 644786.42 638351.53 629105.69 616347.01 596072.08 567309.31 530547.03 485254.37 
 436057.26 386251.98 339466.84 297073.33 261419.78 231222.16 205008.42 182690.59 163088.12 146265.69 
 131305.76 117970.07 106472.00 94989.75 84988.32 75699.53 66776.21 58594.15 50670.39 43169.49 
 36612.92 31086.02 26818.99 23706.87 21568.86 20070.46 18940.91 17975.07 17142.96 16378.33 
 15679.33 15019.18 14401.45 13845.29 13377.66 12903.14 12489.79 12107.56 11775.36 11413.99 
 11052.40 10690.81 10335.20 10011.04 9680.19  9358.59  9045.60  8717.17  8364.17  7970.21  
 7589.91  7233.60  6876.88  6493.82  6096.93  5720.08  5362.01  5007.99  4663.70  4310.57  
 3977.94  3619.85  3317.90  3032.21  2765.65  2523.31  2294.37  2066.71  1849.92  1675.89  
 1520.07  1377.59  1249.57  1156.16  1063.00  969.85   904.69   846.51   790.23   747.08   
 713.27   677.49   645.08   615.20   590.57   567.50   547.85   529.51   512.66   496.60   
 481.56   468.32   457.31   446.78   437.55   428.24   419.09   411.53   403.91   397.08   
 390.43   385.02   379.26   374.45   369.61   365.39   360.84   356.64   352.56   347.97   
 344.42   340.80   337.52   333.77   329.61   325.77   321.02   316.80   311.40   306.34   
 300.83   296.27   289.89   283.86   275.83   267.50   256.74   244.33   232.62   216.56   
 195.35   157.40   94.31    30.97    19.75    17.41    17.96    20.77    24.06    27.70    
 31.58    35.75    40.19    44.83    49.72    54.65    59.96    65.43    71.15    78.47    
 84.51    89.94    96.88    104.48   112.23   120.49   128.93   137.64   146.58   156.11   
 166.23   177.55   190.65   205.45   222.87   244.32   266.30   290.41   315.50   342.23   
 369.71   
651211.69 647744.84 640312.59 629636.52 614193.34 590214.38 557905.91 518188.54 470201.54 417354.46 
 362816.66 314007.21 273056.96 242446.64 211944.22 190637.49 173405.00 159028.80 145468.21 132854.23 
 120648.21 107945.85 95032.96 82780.33 70472.73 58816.79 49074.62 41819.04 36546.42 32735.30 
 29984.00 27669.93 25842.11 24377.48 22913.51 21510.38 20275.31 19228.51 18250.07 17387.81 
 16562.08 15855.98 15194.64 14584.47 14039.78 13534.43 13057.41 12577.40 12144.79 11723.61 
 11336.11 10966.80 10603.22 10257.71 9933.60  9633.29  9345.06  9009.12  8670.08  8301.86  
 7931.39  7537.11  7127.57  6725.36  6311.42  5909.91  5485.67  5074.06  4700.61  4355.63  
 4019.66  3713.25  3441.49  3169.64  2890.84  2622.54  2354.65  2125.72  1927.59  1732.40  
 1558.13  1398.78  1260.11  1142.25  1052.05  973.51   899.96   834.33   777.66   733.66   
 699.21   664.60   630.74   599.92   575.35   554.79   537.34   520.71   505.21   492.69   
 481.20   470.02   460.16   450.87   443.83   436.07   428.88   422.86   416.01   410.41   
 404.61   398.35   392.57   387.90   383.86   378.87   372.97   368.55   364.22   360.10   
 355.83   352.22   348.59   345.91   341.97   338.36   334.34   331.51   328.60   326.29   
 324.10   322.31   320.49   317.53   314.52   311.00   307.06   304.00   299.69   293.19   
 284.94   275.99   261.24   240.76   220.26   199.12   189.99   115.79   40.10    34.51    
 36.23    33.20    34.61    39.55    44.88    50.59    56.55    62.94    69.74    76.93    
 84.82    93.66    105.01   121.17   126.62   132.12   142.46   152.93   163.05   173.09   
 183.00   192.91   203.10   214.74   228.25   244.82   265.16   287.89   313.87   342.27   
 369.71   
651211.69 644560.02 633406.55 617221.09 591279.44 553624.46 505611.70 450333.51 393323.64 338594.94 
 291571.71 253531.18 224722.02 202133.66 183679.11 169064.02 156851.70 145098.54 134418.41 121650.40 
 108093.04 94528.61 80548.07 67260.85 56526.28 49017.61 43987.30 40365.06 37494.54 34916.16 
 32633.27 30570.77 28593.40 26783.03 25183.98 23753.04 22386.86 21092.52 19920.82 18798.25 
 17830.39 16947.10 16187.25 15511.65 14915.97 14376.41 13861.09 13369.74 12926.13 12478.92 
 12024.99 11600.17 11175.64 10774.25 10393.14 10074.81 9782.32  9456.32  9109.16  8719.26  
 8306.12  7871.49  7424.70  6938.89  6438.28  5972.42  5569.48  5177.13  4797.71  4467.79  
 4153.14  3866.72  3543.63  3211.77  2923.92  2664.98  2425.95  2204.37  1968.49  1776.24  
 1595.20  1438.34  1293.33  1193.30  1093.61  993.92   913.24   840.86   780.26   737.57   
 698.23   657.62   618.69   585.13   559.57   538.76   520.52   503.34   488.93   475.37   
 464.84   455.50   446.39   439.18   432.81   427.10   421.97   417.08   412.07   406.97   
 401.53   396.21   391.63   386.62   381.82   377.81   373.41   369.19   363.84   359.56   
 356.02   353.18   350.91   348.04   345.81   343.33   340.24   337.36   334.49   331.44   
 328.48   325.52   322.98   321.02   318.45   304.82   293.73   290.87   288.95   287.37   
 285.08   282.46   279.42   275.55   271.93   257.47   246.11   241.56   238.76   224.59   
 135.01   44.86    42.02    41.70    44.37    50.55    57.71    65.49    73.87    83.25    
 93.41    104.23   115.59   127.97   159.06   151.26   159.43   170.64   181.42   191.58   
 201.16   210.07   218.83   227.66   240.31   252.99   269.78   289.84   313.95   341.64   
 369.71   
651211.69 642739.80 629306.89 608847.22 575833.01 529676.41 474606.29 413214.45 354372.13 302788.61 
 271100.90 239413.20 207866.62 188865.46 174316.20 162734.68 151048.01 140547.11 129038.24 116761.95 
 103085.56 88463.00 74073.70 62748.29 54684.68 48999.52 45025.94 41817.50 39103.03 36601.87 
 34233.00 32071.45 30068.13 28271.00 26670.25 25107.09 23545.50 22120.15 20822.17 19672.62 
 18608.00 17696.34 16897.18 16190.08 15519.41 14917.06 14369.36 13851.25 13333.03 12840.49 
 12394.76 11967.85 11524.62 11135.43 10822.78 10596.91 10330.42 9984.25  9582.50  9175.37  
 8724.54  8278.31  7809.48  7283.06  6779.51  6322.03  5861.18  5426.98  5056.27  4707.99  
 4370.96  4025.60  3661.37  3344.33  3045.47  2775.12  2505.05  2262.94  2031.86  1832.32  
 1634.81  1470.39  1326.09  1204.69  1094.92  997.53   911.73   835.89   770.75   722.71   
 680.11   636.09   593.81   558.95   531.99   509.44   490.23   473.24   456.77   443.03   
 432.24   423.42   415.93   409.28   404.04   399.55   395.62   391.96   388.61   385.22   
 381.55   377.72   374.49   370.70   367.17   363.69   360.38   357.56   354.75   350.02   
 347.78   345.70   343.32   340.98   338.46   336.35   334.45   332.16   330.30   328.19   
 326.64   324.84   323.07   321.05   319.85   317.73   299.69   293.99   292.11   291.80   
 291.23   290.82   289.27   287.48   286.58   284.86   283.02   282.22   280.54   273.56   
 161.06   49.90    46.68    46.43    47.77    54.48    63.57    73.23    84.20    95.85    
 108.40   121.58   134.79   149.49   175.69   206.84   185.45   195.68   205.13   214.61   
 223.52   231.76   239.30   246.28   253.86   263.88   277.83   295.79   318.61   345.44   
 369.71   
651211.69 640015.99 623600.10 599038.57 562560.26 514064.86 457343.68 400135.80 346339.56 299326.61 
 262341.94 232363.15 209403.75 191143.65 176667.57 164379.71 152629.24 142313.65 132174.83 120207.97 
 106782.14 93343.08 79785.96 67919.60 58849.86 52480.15 48056.69 44504.44 41436.16 38681.34 
 36120.46 33732.06 31515.94 29463.99 27604.58 25905.43 24394.73 22958.79 21661.28 20418.12 
 19325.76 18348.62 17474.14 16694.09 15975.87 15335.44 14716.01 14169.98 13644.88 13111.80 
 12612.59 12254.41 11760.05 11264.36 10839.24 10482.75 10181.69 9821.32  9439.83  9030.95  
 8607.83  8163.11  7693.56  7173.53  6661.25  6182.00  5750.86  5346.11  4965.91  4625.09  
 4297.79  3993.29  3653.16  3325.84  3044.76  2782.66  2536.39  2303.46  2065.69  1869.11  
 1680.30  1520.42  1371.08  1244.46  1139.19  1034.14  947.17   872.00   810.38   763.70   
 720.87   676.44   633.59   598.79   571.57   548.24   527.62   509.78   493.74   480.06   
 469.03   457.97   449.49   442.32   436.18   430.85   425.49   421.01   415.64   411.20   
 406.42   402.07   397.46   393.39   389.53   385.60   381.97   377.20   371.61   367.66   
 363.99   360.31   357.00   354.00   350.82   347.38   344.33   341.69   338.96   335.83   
 332.44   328.86   325.72   323.07   322.03   307.69   304.68   301.95   300.64   298.76   
 296.40   293.90   291.26   289.15   281.81   267.68   261.66   256.02   246.56   138.79   
 92.04    45.76    46.15    50.45    59.35    69.33    80.14    91.73    103.96   116.83   
 130.28   144.16   158.54   178.21   201.72   196.09   206.31   216.54   225.40   232.87   
 240.57   248.88   254.90   260.83   267.41   276.78   289.28   305.85   326.54   351.61   
 369.71   
651211.69 640501.56 625600.05 605065.70 574552.77 536213.92 492398.35 444849.88 395852.50 347838.55 
 304998.26 275413.77 245829.25 216348.64 195920.83 179967.88 166170.09 153748.21 142066.88 130878.73 
 119494.48 107896.42 95802.23 83931.36 72678.29 62611.39 54486.36 48328.16 43829.58 40244.08 
 37253.26 34601.63 32328.44 30280.89 28318.34 26650.66 24982.98 23319.01 21968.52 20734.06 
 19586.32 18591.81 17685.40 16861.29 16062.45 15339.94 14666.86 14044.51 13476.58 12927.40 
 12422.80 11944.08 11484.89 11033.50 10619.50 10251.24 9899.31  9524.55  9145.78  8777.79  
 8376.55  7962.76  7536.94  7109.44  6679.40  6250.44  5798.83  5360.66  4976.82  4600.72  
 4249.77  3926.44  3628.54  3347.18  3064.34  2796.21  2528.49  2300.85  2097.84  1895.92  
 1707.99  1539.14  1382.95  1249.69  1137.14  1035.83  947.17   870.25   805.20   756.74   
 715.89   674.19   632.31   597.56   570.33   546.85   527.20   508.03   491.56   478.02   
 466.26   455.38   446.68   438.48   430.56   423.84   417.13   410.78   404.56   398.32   
 393.09   388.00   383.46   379.67   375.93   372.20   369.17   365.39   362.25   360.07   
 356.88   354.00   351.07   348.09   344.85   341.74   338.67   335.84   333.14   330.83   
 328.08   325.30   322.49   319.14   314.24   310.04   305.53   300.98   296.11   291.05   
 285.34   273.02   256.09   244.56   232.96   214.87   123.77   44.16    36.48    37.88    
 39.83    46.54    54.72    63.67    73.28    83.62    94.44    105.96   118.33   131.86   
 145.41   160.09   177.02   185.08   196.21   207.08   216.95   226.31   234.60   242.35   
 249.55   255.91   262.26   268.86   276.91   286.49   298.34   312.85   331.00   352.69   
 369.71   
651211.69 641003.02 628039.38 611832.61 591883.04 566726.53 536023.50 501061.20 461027.98 416988.18 
 371839.67 329776.49 293394.60 263541.84 236343.29 212965.31 192563.97 175013.74 159016.80 144848.77 
 132223.82 121057.03 109903.11 98749.21 88700.54 79403.64 70706.92 62573.62 54760.03 47715.68 
 41749.95 36948.22 33059.83 30070.11 27747.99 25881.08 24290.20 22887.20 21575.91 20401.73 
 19307.16 18291.64 17359.28 16518.36 15752.46 15049.07 14391.59 13817.00 13296.71 12789.23 
 12290.75 11792.33 11293.91 10864.07 10446.99 10061.35 9698.15  9294.59  8892.78  8483.03  
 8090.80  7700.18  7300.58  6905.07  6507.09  6113.27  5733.27  5366.77  5010.01  4646.21  
 4297.00  3935.36  3607.57  3299.59  3019.79  2758.64  2514.37  2271.51  2046.22  1859.12  
 1694.09  1539.28  1396.68  1263.74  1155.35  1047.20  958.04   878.70   814.02   760.36   
 718.05   673.95   632.80   599.33   569.79   544.77   522.01   503.00   486.36   471.28   
 458.28   447.19   438.14   429.51   421.79   415.01   408.18   401.96   396.32   391.95   
 386.74   381.88   379.36   375.24   372.83   369.83   366.88   364.97   361.49   359.35   
 355.24   351.47   348.55   345.60   342.92   339.16   335.49   330.05   324.44   318.45   
 312.33   304.17   296.68   288.20   278.68   265.68   253.10   237.87   221.54   198.71   
 126.73   80.74    35.01    26.75    24.60    26.30    30.82    35.82    41.64    48.18    
 55.44    63.30    71.94    81.42    91.50    101.92   113.06   124.74   136.62   147.25   
 158.28   169.22   179.68   189.76   199.00   207.69   215.68   223.58   231.00   238.11   
 246.22   254.34   262.38   271.34   281.09   292.46   305.48   320.93   338.35   358.39   
 369.71   
651211.69 643146.09 633916.73 623935.16 613100.50 599871.34 582950.95 560847.59 532946.12 498645.13 
 459919.72 420591.16 382738.55 347714.27 314687.34 283178.81 254478.53 225819.27 200444.20 176275.43 
 154995.19 136846.12 121757.35 108917.64 98435.34 89327.87 81485.21 74994.15 68532.66 62465.46 
 56641.63 50931.52 45382.44 40237.24 35817.78 31763.43 28279.04 25597.67 22924.47 20927.47 
 19310.66 18017.14 17020.59 16153.62 15435.93 14755.65 14168.61 13620.40 13106.29 12614.38 
 12162.48 11737.28 11311.19 10880.86 10451.32 10049.75 9643.80  9219.00  8790.69  8347.77  
 7907.02  7472.12  7038.07  6605.40  6215.83  5856.71  5509.65  5157.39  4826.07  4498.24  
 4183.40  3871.54  3564.12  3279.44  3010.04  2759.65  2509.38  2271.25  2057.43  1869.10  
 1694.07  1533.70  1387.91  1265.36  1157.59  1059.17  968.74   888.33   816.24   756.48   
 707.66   663.98   620.76   581.68   547.43   518.12   492.55   470.70   451.34   434.45   
 420.71   407.26   395.49   384.86   376.46   368.96   362.01   356.34   351.83   347.20   
 342.96   337.77   332.54   326.74   319.84   313.60   307.12   299.43   291.65   284.14   
 276.47   267.91   259.29   249.07   238.84   227.95   214.14   198.35   179.43   151.63   
 113.60   80.91    49.62    32.83    16.96    10.02    11.12    12.70    14.47    16.53    
 18.95    21.72    24.84    28.47    32.47    37.08    42.16    47.74    53.82    60.61    
 68.05    75.79    84.22    93.11    102.36   111.96   121.73   132.01   142.28   152.24   
 161.93   171.16   180.12   188.62   196.81   204.79   212.31   220.22   227.82   235.61   
 244.08   253.14   262.99   274.19   286.27   299.39   313.69   329.32   346.48   364.30   
 369.71   
651211.69 645608.57 639829.23 634630.45 628563.03 620473.53 608365.19 591694.86 571951.61 547323.19 
 518996.65 486899.83 453773.83 419060.53 384459.16 349775.57 316512.62 281759.56 247613.86 214345.67 
 183036.56 156063.27 134901.04 121097.36 107355.31 93613.27 84909.96 77296.55 70838.98 64314.12 
 58290.20 52590.41 47059.50 41986.53 37461.26 33256.14 29585.15 26117.77 23303.58 20967.34 
 19141.57 17602.70 16365.11 15341.87 14486.51 13748.82 13074.39 12487.68 11965.83 11444.48 
 10960.94 10516.28 10070.74 9624.77  9188.46  8742.57  8292.39  7838.38  7382.24  6933.23  
 6495.23  6102.62  5738.68  5401.92  5079.72  4767.74  4472.67  4189.96  3902.72  3625.55  
 3363.19  3121.17  2890.03  2669.28  2460.81  2265.91  2082.91  1908.86  1742.87  1591.26  
 1451.98  1324.16  1209.57  1095.08  980.60   884.88   801.48   729.61   665.71   610.95   
 562.06   523.60   484.77   448.84   415.47   384.38   356.30   332.50   311.55   291.89   
 272.52   254.83   237.74   222.64   207.97   193.40   179.91   166.66   153.50   139.25   
 122.76   106.24   89.70    74.13    63.06    55.50    48.77    25.92    7.43     5.66     
 5.83     6.17     6.54     6.94     7.37     7.82     8.33     8.87     9.51     10.20    
 10.97    11.83    12.82    13.91    15.20    16.69    18.39    20.32    22.51    24.91    
 27.67    30.77    34.24    38.19    42.82    47.75    52.98    58.49    64.45    70.65    
 77.33    83.11    90.05    97.80    105.77   113.76   122.03   130.54   138.93   147.49   
 155.87   164.28   172.54   180.81   188.97   197.30   205.77   214.66   223.49   232.97   
 243.29   256.22   268.70   282.36   297.11   313.17   330.02   347.79   365.56   383.96   
 369.71   
651211.69 648773.02 646024.46 642862.25 637457.22 627466.04 611668.78 594756.06 573398.48 550757.66 
 525195.76 498742.64 471385.14 440512.37 405685.05 369435.56 328618.17 286526.99 244308.46 205924.33 
 173174.63 146341.58 124049.37 109808.09 95656.66 81505.22 72024.16 64391.33 57615.40 51888.12 
 46572.02 41722.34 37187.21 32867.99 28882.73 25147.09 21827.83 19012.52 16697.18 14826.95 
 13390.17 12275.05 11442.97 10794.90 10148.97 9597.63  9150.47  8773.58  8422.39  8030.26  
 7614.26  7167.11  6662.99  6130.25  5637.92  5223.84  4851.06  4470.44  4117.67  3817.35  
 3516.46  3232.95  2957.53  2709.36  2476.24  2261.80  2058.52  1857.63  1668.48  1491.54  
 1331.36  1179.68  1044.22  908.93   790.97   684.31   588.35   500.07   423.55   356.64   
 300.73   249.61   205.79   169.31   136.99   87.82    38.44    10.66    6.31     5.93     
 5.73     5.71     5.73     5.81     5.86     5.95     6.06     6.10     6.06     6.25     
 6.49     6.75     7.05     7.36     7.70     8.07     8.46     8.88     9.33     9.79     
 10.26    10.78    11.31    11.86    12.43    13.02    13.64    14.28    14.96    15.70    
 16.47    17.30    18.22    19.23    20.37    21.62    23.04    24.69    26.54    28.59    
 30.88    33.42    36.29    39.60    43.44    47.85    52.91    58.79    65.58    73.46    
 82.50    92.68    104.07   116.85   130.92   146.05   162.21   179.21   197.25   216.24   
 235.23   254.23   272.49   290.42   307.98   324.52   340.32   355.41   369.52   382.57   
 394.54   405.33   415.30   423.99   431.57   438.04   443.31   447.40   450.00   451.37   
 451.02   449.07   445.87   441.34   435.27   427.72   418.49   407.78   395.83   382.32   
 369.71   
651211.69 648744.09 645446.89 641692.23 637105.47 627700.38 612506.24 595774.07 575172.34 550850.92 
 524029.84 494645.86 464103.08 429678.85 389175.87 344532.89 298547.02 261244.57 223942.09 186657.26 
 151766.92 120404.08 98897.40 83549.56 72009.86 61036.88 53076.69 47414.72 42612.97 38027.92 
 33385.36 28888.70 25489.64 22090.59 18696.84 15939.39 13541.87 11477.23 9615.64  8178.79  
 7100.16  6260.75  5627.90  5078.51  4592.54  4138.67  3702.11  3288.58  2857.02  2425.45  
 1994.34  1610.33  1232.65  912.56   683.00   521.26   407.79   322.47   272.37   222.27   
 172.42   149.21   131.13   117.19   104.30   91.85    81.67    72.84    65.38    59.70    
 54.97    50.89    47.06    43.36    37.76    26.93    25.47    23.49    21.52    19.92    
 17.99    15.59    12.85    9.73     6.51     4.79     4.73     4.80     4.90     5.01     
 5.14     5.28     5.44     5.63     5.83     6.05     6.28     6.54     6.84     7.15     
 7.47     7.82     8.21     8.62     9.09     9.55     10.03    10.54    11.07    11.62    
 12.19    12.76    13.35    13.97    14.61    15.27    15.96    16.65    17.39    18.18    
 19.08    20.04    21.08    22.20    23.42    24.82    26.35    28.10    30.01    32.13    
 34.49    37.13    40.09    43.44    47.20    51.51    56.50    62.22    68.72    76.15    
 84.93    94.68    105.55   118.66   131.78   146.57   162.14   179.03   196.58   214.71   
 233.49   251.99   270.41   289.34   307.09   324.88   341.75   357.57   373.32   387.56   
 401.17   413.63   424.94   435.33   444.77   453.16   459.88   465.48   469.43   471.73   
 472.17   470.42   467.76   462.75   455.92   447.23   436.35   423.69   408.82   392.07   
 369.71   
651211.69 648084.89 643308.24 638852.93 632367.56 621446.02 604588.67 579087.86 537391.36 489369.93 
 447105.16 397610.16 349762.74 301294.87 251690.52 218756.10 187962.63 150643.41 126506.72 105848.91 
 85231.62 64614.34 49382.16 42964.77 37965.73 33737.30 30427.53 27470.30 24591.17 21712.99 
 18864.85 16103.49 12257.18 9996.88  7755.03  5513.19  3947.94  3054.80  2146.73  1595.58  
 1097.37  804.25   513.66   364.01   263.90   211.16   171.23   141.25   123.41   105.71   
 88.00    79.33    71.96    66.14    61.92    57.68    54.27    50.49    47.74    45.09    
 42.91    40.77    38.46    34.67    24.68    19.85    18.89    18.02    17.30    16.60    
 15.89    15.27    14.69    14.08    13.46    12.81    12.03    11.21    10.32    9.36     
 8.23     7.11     6.13     5.40     5.05     5.03     5.13     5.25     5.39     5.54     
 5.72     5.92     6.12     6.35     6.62     6.90     7.20     7.53     7.86     8.22     
 8.59     8.99     9.39     9.82     10.28    10.74    11.21    11.69    12.21    12.74    
 13.27    13.84    14.41    15.02    15.64    16.29    16.96    17.66    18.40    19.20    
 20.03    20.94    21.90    23.01    24.18    25.47    26.89    28.52    30.30    32.24    
 34.45    36.84    39.59    42.70    46.21    50.15    54.64    59.91    65.95    72.89    
 80.68    89.49    99.45    110.96   123.93   138.00   153.18   169.42   186.49   205.07   
 226.04   247.04   267.51   287.84   307.64   326.99   347.02   366.70   384.89   401.55   
 417.00   431.53   444.75   456.18   466.28   475.01   482.33   487.75   491.17   492.77   
 492.79   490.28   485.99   479.64   471.11   460.15   446.24   430.82   412.64   392.29   
 369.71   
651211.69 648332.70 642905.39 635001.43 624048.55 605931.57 558669.79 507483.10 457614.72 402256.43 
 338602.64 286912.92 236739.21 186666.52 148254.05 121112.04 88895.69 75530.94 66207.94 58320.82 
 51588.85 45480.51 40281.86 35821.09 27667.35 22508.12 17353.44 12709.29 9546.95  6205.66  
 4545.00  2921.45  1307.16  871.23   633.97   417.39   298.93   251.45   204.10   170.31   
 141.14   117.88   101.18   88.12    76.05    67.68    60.86    55.87    51.68    48.27    
 44.70    41.40    38.40    36.27    34.26    31.91    27.57    20.20    16.88    16.02    
 15.37    14.89    14.54    14.10    13.60    13.10    12.64    12.23    11.80    11.35    
 10.91    10.46    9.99     9.51     9.02     8.50     7.94     7.33     6.70     6.09     
 5.56     5.11     4.72     4.48     4.47     4.55     4.68     4.83     4.99     5.16     
 5.36     5.57     5.79     6.04     6.32     6.61     6.92     7.25     7.58     7.93     
 8.29     8.67     9.06     9.48     9.93     10.39    10.86    11.34    11.85    12.35    
 12.87    13.39    13.95    14.52    15.12    15.74    16.37    17.02    17.66    18.34    
 19.09    19.89    20.76    21.72    22.74    23.85    25.17    26.62    28.24    30.09    
 32.13    34.43    36.98    39.88    43.07    46.69    50.81    55.44    60.55    66.40    
 73.23    80.88    89.57    99.43    111.82   124.23   138.26   154.03   171.18   189.89   
 210.15   231.09   252.84   276.42   299.52   323.73   347.77   370.89   394.21   416.06   
 436.67   455.19   472.14   487.07   499.30   509.27   516.54   521.33   524.30   525.03   
 523.21   519.27   513.26   504.32   493.30   479.51   463.57   445.10   423.32   399.44   
 369.71   
651211.69 648098.10 641604.22 629858.62 611555.99 556419.47 495943.87 437348.04 368399.90 305583.96 
 243309.22 191501.90 145377.02 106979.77 90448.17 74149.02 66522.80 60082.15 54237.82 49297.78 
 38282.26 32648.48 24012.61 16045.08 12315.57 7829.96  3335.74  1334.82  746.07   577.72   
 414.42   305.06   205.34   179.94   140.56   116.39   92.40    80.32    69.11    59.12    
 51.10    45.22    40.52    37.41    34.85    32.58    31.00    29.46    27.95    26.22    
 24.25    20.85    15.82    14.01    13.43    12.85    12.36    11.84    11.42    11.09    
 10.88    10.60    10.33    10.07    9.77     9.47     9.18     8.90     8.63     8.32     
 8.04     7.75     7.44     7.12     6.80     6.46     6.11     5.78     5.50     5.27     
 5.05     4.87     4.76     4.75     4.79     4.89     5.00     5.13     5.28     5.43     
 5.60     5.79     5.99     6.23     6.49     6.77     7.06     7.35     7.67     8.01     
 8.37     8.74     9.13     9.53     9.95     10.38    10.82    11.28    11.76    12.24    
 12.73    13.25    13.79    14.37    14.96    15.57    16.21    16.88    17.57    18.28    
 19.03    19.80    20.63    21.47    22.38    23.33    24.38    25.58    26.92    28.39    
 30.04    32.00    34.27    36.93    39.95    43.42    47.27    51.68    56.64    62.21    
 68.42    75.33    83.21    92.04    101.93   113.14   125.85   140.30   156.60   174.55   
 194.49   215.91   240.30   264.73   290.83   317.55   344.15   370.58   397.35   424.37   
 450.00   473.36   494.18   513.25   528.78   540.29   548.56   553.24   554.10   552.20   
 547.55   540.54   531.04   519.47   505.72   489.58   470.95   450.08   426.39   399.53   
 369.71   
651211.69 650367.74 644240.20 631958.25 608921.47 540911.78 473422.90 402423.21 320875.21 259225.91 
 197667.35 147538.43 106954.72 84707.89 75181.63 68054.01 62255.27 57229.19 51865.95 40092.73 
 31837.50 23582.28 15335.88 8205.66  5603.97  3002.29  423.54   343.83   296.47   237.65   
 178.89   129.87   114.20   78.86    62.91    62.78    59.36    50.90    37.42    31.06    
 27.57    24.87    23.08    21.91    20.70    19.39    17.99    16.59    15.01    13.01    
 11.65    11.07    10.70    10.42    9.98     9.51     8.96     8.53     8.46     8.50     
 8.48     8.35     8.08     7.72     7.29     6.85     6.49     6.15     5.90     5.68     
 5.49     5.35     5.24     5.14     5.08     5.02     4.93     4.88     4.81     4.75     
 4.69     4.66     4.67     4.69     4.75     4.82     4.91     5.02     5.13     5.26     
 5.41     5.59     5.76     5.96     6.17     6.42     6.68     6.95     7.24     7.55     
 7.88     8.21     8.58     8.97     9.38     9.79     10.22    10.68    11.15    11.65    
 12.14    12.66    13.19    13.73    14.30    14.90    15.55    16.22    16.89    17.60    
 18.34    19.15    19.98    20.82    21.73    22.69    23.72    24.79    25.90    27.11    
 28.44    29.97    31.69    33.72    36.02    38.74    42.13    45.97    50.27    55.25    
 61.02    67.37    74.37    82.18    90.92    100.87   111.93   125.85   139.80   156.51   
 175.66   196.73   219.68   245.54   272.68   301.93   332.30   362.30   393.41   423.56   
 453.14   481.20   507.46   531.43   551.26   566.96   577.65   583.89   585.73   583.08   
 576.38   566.48   554.99   540.54   523.83   505.19   483.47   459.84   433.29   405.01   
 369.71   
651211.69 652264.53 646550.88 635199.13 613936.50 546808.48 476876.62 402918.45 320435.47 258962.46 
 195741.27 145378.90 122108.01 99138.12 76168.23 68500.29 62425.25 57262.61 45438.32 38579.72 
 29305.71 18527.33 10685.74 6293.43  1939.49  1284.66  669.54   54.41    38.22    27.89    
 24.10    20.85    18.11    16.11    14.49    12.91    11.91    11.24    10.63    10.31    
 10.08    9.65     9.17     9.15     8.74     8.32     8.07     7.56     6.86     6.54     
 6.48     6.49     6.08     5.82     5.57     5.50     5.49     5.32     5.32     5.21     
 5.11     5.08     5.06     5.02     5.01     5.01     4.99     4.96     4.94     4.93     
 4.93     4.93     4.93     4.93     4.93     4.93     4.94     4.94     4.96     4.99     
 5.04     5.07     5.09     5.11     5.16     5.22     5.28     5.36     5.49     5.62     
 5.77     5.95     6.11     6.29     6.48     6.71     6.96     7.23     7.51     7.81     
 8.12     8.47     8.82     9.19     9.58     10.00    10.44    10.89    11.35    11.85    
 12.35    12.86    13.38    13.95    14.56    15.18    15.82    16.49    17.22    17.99    
 18.80    19.65    20.48    21.37    22.32    23.32    24.34    25.48    26.70    28.01    
 29.43    30.94    32.58    34.49    36.75    39.40    42.48    46.06    50.21    55.03    
 60.47    66.71    73.57    81.17    89.44    98.67    109.03   120.83   134.36   150.07   
 168.17   188.60   211.42   239.22   267.08   296.93   327.99   359.14   391.56   423.69   
 454.03   482.38   509.33   534.29   555.17   571.29   583.00   589.02   589.70   585.69   
 577.18   564.91   551.15   534.29   516.86   497.38   476.48   454.21   430.14   403.29   
 369.71   
