IESNA:LM-63-2002
[TEST] 1
[TESTLAB] AOK
[TESTDATE] 2022-05-13
[ISSUEDATE] 2022-05-13 18:03:42
[NEARFIELD] 
[LAMPPOSITION] 0,0
[OTHER] EVERFINE GO-2000A_V1 SYSTEM
[MANUFAC] AOK
[LUMCAT] A
[LUMINAIRE] AOK-400WiSF-NVY-S5-00-5070-30D-
[LAMPCAT] B
[LAMP] 5050
[BALLAST] E
[BALLASTCAT] F
[OTHER] 
[OTHER] Gamma(deg)    Fz(lm)      Ft(lm)     %Lum    %Lamp
[OTHER]   0- 10     10720.75    10720.75    20.08    20.08
[OTHER]  10- 20     16106.49    26827.24    50.26    50.26
[OTHER]  20- 30      9808.32    36635.56    68.63    68.63
[OTHER]  30- 40      6893.78    43529.34    81.54    81.54
[OTHER]  40- 50      4354.72    47884.06    89.70    89.70
[OTHER]  50- 60      2487.48    50371.54    94.36    94.36
[OTHER]  60- 70      1472.57    51844.11    97.12    97.12
[OTHER]  70- 80       701.31    52545.42    98.43    98.43
[OTHER]  80- 90       288.16    52833.57    98.97    98.97
[OTHER]  90-100       146.95    52980.52    99.25    99.25
[OTHER] 100-110       100.79    53081.31    99.44    99.44
[OTHER] 110-120        79.92    53161.23    99.59    99.59
[OTHER] 120-130        61.98    53223.21    99.70    99.70
[OTHER] 130-140        47.55    53270.76    99.79    99.79
[OTHER] 140-150        39.66    53310.41    99.87    99.87
[OTHER] 150-160        36.37    53346.78    99.93    99.93
[OTHER] 160-170        25.97    53372.75    99.98    99.98
[OTHER] 170-180         9.39    53382.14   100.00   100.00
[OTHER] 
TILT=NONE
1 53382 1 181 25 1 2 0.150 0.200 0.000
1.000 1 384.008
0.0    1.0    2.0    3.0    4.0    5.0    6.0    7.0    8.0    9.0    
 10.0   11.0   12.0   13.0   14.0   15.0   16.0   17.0   18.0   19.0   
 20.0   21.0   22.0   23.0   24.0   25.0   26.0   27.0   28.0   29.0   
 30.0   31.0   32.0   33.0   34.0   35.0   36.0   37.0   38.0   39.0   
 40.0   41.0   42.0   43.0   44.0   45.0   46.0   47.0   48.0   49.0   
 50.0   51.0   52.0   53.0   54.0   55.0   56.0   57.0   58.0   59.0   
 60.0   61.0   62.0   63.0   64.0   65.0   66.0   67.0   68.0   69.0   
 70.0   71.0   72.0   73.0   74.0   75.0   76.0   77.0   78.0   79.0   
 80.0   81.0   82.0   83.0   84.0   85.0   86.0   87.0   88.0   89.0   
 90.0   91.0   92.0   93.0   94.0   95.0   96.0   97.0   98.0   99.0   
 100.0  101.0  102.0  103.0  104.0  105.0  106.0  107.0  108.0  109.0  
 110.0  111.0  112.0  113.0  114.0  115.0  116.0  117.0  118.0  119.0  
 120.0  121.0  122.0  123.0  124.0  125.0  126.0  127.0  128.0  129.0  
 130.0  131.0  132.0  133.0  134.0  135.0  136.0  137.0  138.0  139.0  
 140.0  141.0  142.0  143.0  144.0  145.0  146.0  147.0  148.0  149.0  
 150.0  151.0  152.0  153.0  154.0  155.0  156.0  157.0  158.0  159.0  
 160.0  161.0  162.0  163.0  164.0  165.0  166.0  167.0  168.0  169.0  
 170.0  171.0  172.0  173.0  174.0  175.0  176.0  177.0  178.0  179.0  
 180.0  
0.0    15.0   30.0   45.0   60.0   75.0   90.0   105.0  120.0  135.0  
 150.0  165.0  180.0  195.0  210.0  225.0  240.0  255.0  270.0  285.0  
 300.0  315.0  330.0  345.0  360.0  
124989.99 122863.52 122560.09 122292.22 112541.48 96313.00 85136.57 73961.85 58534.88 50929.42 
 36869.63 26359.91 16033.86 12779.79 9602.94  6426.09  3249.24  72.39    24.02    19.40    
 16.87    15.15    13.89    12.28    10.73    9.59     8.77     8.26     8.21     8.23     
 8.08     6.67     5.67     5.27     5.24     5.39     5.56     5.73     5.53     5.39     
 5.22     5.16     5.02     4.95     4.72     4.57     4.60     4.65     4.53     4.27     
 4.03     4.00     3.89     3.81     3.76     3.73     3.61     3.51     3.41     3.29     
 3.20     3.16     3.12     3.06     2.98     2.90     2.82     2.76     2.69     2.62     
 2.54     2.49     2.45     2.41     2.39     2.38     2.38     2.37     2.37     2.40     
 2.44     2.48     2.53     2.62     2.79     2.94     3.05     3.14     3.23     3.32     
 3.42     3.53     3.62     3.68     3.73     3.82     3.93     4.07     4.25     4.47     
 4.72     4.99     5.28     5.60     5.95     6.32     6.71     7.11     7.52     7.96     
 8.42     8.90     9.40     9.94     10.53    11.18    11.88    12.63    13.45    14.31    
 15.23    16.20    17.24    18.34    19.53    20.78    22.17    23.62    25.12    26.73    
 28.39    30.13    32.00    33.93    35.98    38.09    40.31    42.74    45.32    48.06    
 51.01    54.26    57.84    61.78    66.03    70.67    75.62    80.78    86.18    92.00    
 98.02    104.01   109.91   115.60   121.12   126.56   131.61   136.27   140.60   144.71   
 148.46   151.77   154.52   156.51   157.60   157.78   157.12   155.43   152.84   149.53   
 145.64   141.36   136.84   132.22   127.49   122.71   117.71   112.52   106.96   100.56   
 93.20    
124989.99 122350.99 121846.51 121410.70 119253.15 99907.76 89237.17 78358.83 64875.59 56210.50 
 42799.93 32255.79 21711.65 11167.51 716.15   583.99   530.51   277.87   208.81   193.71   
 178.61   163.13   101.97   139.62   112.69   65.33    33.62    24.48    19.18    15.97    
 13.56    11.60    9.68     8.22     7.53     7.07     6.77     6.67     6.69     6.51     
 6.20     5.96     5.69     5.45     5.26     5.05     4.80     4.62     4.43     4.21     
 3.99     3.86     3.73     3.59     3.44     3.31     3.17     3.05     2.95     2.88     
 2.79     2.72     2.66     2.59     2.53     2.47     2.43     2.39     2.35     2.30     
 2.26     2.21     2.16     2.12     2.12     2.11     2.11     2.11     2.11     2.12     
 2.13     2.15     2.18     2.22     2.26     2.33     2.41     2.49     2.57     2.68     
 2.79     2.92     3.03     3.16     3.29     3.45     3.62     3.80     4.00     4.23     
 4.47     4.73     5.02     5.32     5.64     5.99     6.34     6.72     7.12     7.55     
 8.02     8.51     9.04     9.59     10.17    10.81    11.49    12.22    12.98    13.81    
 14.72    15.72    16.77    17.86    19.03    20.28    21.62    23.09    24.60    26.18    
 27.81    29.55    31.37    33.25    35.18    37.29    39.52    41.88    44.29    47.00    
 50.00    53.22    56.69    60.60    64.80    69.34    74.18    79.35    84.79    90.52    
 96.38    102.32   108.10   113.95   119.61   124.97   130.10   134.81   139.39   143.56   
 147.41   150.95   153.76   155.90   157.15   157.47   156.97   155.57   153.31   150.49   
 147.05   143.19   139.20   135.05   130.73   126.24   121.19   115.69   109.74   103.11   
 93.20    
124989.99 122470.79 121715.88 121173.01 120396.01 109249.92 94214.37 84818.43 75882.09 60996.79 
 52400.56 40748.86 31739.62 22425.92 14820.17 11250.35 7722.41  4194.47  666.53   537.88   
 349.30   218.27   231.59   164.63   146.21   147.99   127.25   106.28   85.31    63.83    
 62.77    53.05    42.72    42.54    36.59    31.10    31.09    26.20    25.10    23.31    
 22.94    22.41    20.51    17.89    17.11    15.40    14.07    12.78    12.15    10.58    
 9.15     8.47     6.98     5.91     5.37     5.11     4.88     4.53     4.17     3.82     
 3.52     3.25     3.06     2.92     2.79     2.64     2.50     2.37     2.28     2.20     
 2.15     2.10     2.07     2.04     2.01     2.00     1.98     1.95     1.93     1.92     
 1.91     1.92     1.94     2.00     2.05     2.13     2.21     2.31     2.41     2.52     
 2.65     2.78     2.93     3.09     3.26     3.44     3.64     3.84     4.05     4.27     
 4.50     4.73     4.98     5.25     5.52     5.83     6.17     6.52     6.90     7.32     
 7.77     8.25     8.74     9.27     9.86     10.51    11.17    11.87    12.66    13.50    
 14.41    15.35    16.33    17.44    18.58    19.79    21.08    22.45    23.89    25.40    
 26.96    28.60    30.30    32.10    34.09    36.16    38.35    40.72    43.26    45.97    
 48.96    52.31    56.00    59.99    64.24    68.77    73.55    78.57    84.04    89.66    
 95.32    100.99   106.75   112.44   117.97   123.30   128.52   133.44   138.19   142.65   
 146.51   149.74   152.31   154.18   155.39   155.86   155.51   154.46   152.85   150.58   
 147.84   144.74   141.46   138.06   133.96   129.42   124.18   118.88   113.41   107.61   
 93.20    
124989.99 123032.65 121343.75 120720.76 119933.40 118718.41 112478.34 97280.70 86410.32 75318.78 
 67370.54 55580.85 44734.53 39991.51 32026.86 24062.21 16137.06 12357.10 6770.34  1223.06  
 981.75   746.06   484.31   350.14   301.62   244.20   186.89   142.11   108.76   89.79    
 78.52    69.30    62.50    56.48    51.41    46.80    42.11    38.66    35.07    31.50    
 28.16    24.45    21.71    20.08    19.16    18.05    17.15    16.13    15.10    13.94    
 12.78    11.75    10.70    9.70     8.76     8.01     7.49     7.02     6.57     6.14     
 5.74     5.39     5.02     4.70     4.43     4.21     3.99     3.78     3.56     3.35     
 3.13     2.92     2.73     2.57     2.42     2.30     2.18     2.07     1.99     1.91     
 1.82     1.78     1.79     1.81     1.87     1.93     2.02     2.11     2.21     2.32     
 2.43     2.56     2.69     2.84     2.99     3.16     3.33     3.50     3.69     3.89     
 4.09     4.31     4.55     4.80     5.09     5.37     5.67     6.02     6.39     6.77     
 7.19     7.68     8.18     8.71     9.26     9.85     10.50    11.16    11.87    12.62    
 13.45    14.31    15.29    16.27    17.29    18.35    19.50    20.75    22.04    23.41    
 24.87    26.40    28.06    29.77    31.60    33.55    35.71    37.99    40.40    43.05    
 46.05    49.20    52.65    56.41    60.44    64.86    69.46    74.39    79.50    84.80    
 90.36    95.85    101.36   107.11   112.69   118.19   123.46   128.34   133.04   137.18   
 140.92   144.12   146.76   148.82   150.26   151.18   151.45   151.11   150.21   148.84   
 147.08   144.81   142.58   139.67   136.20   132.38   128.16   123.20   118.35   113.48   
 93.20    
124989.99 123642.71 121887.42 120585.57 119644.70 117445.20 114215.56 110207.53 106701.77 95578.29 
 83038.90 72833.73 64993.95 55427.90 48092.42 40240.89 30937.23 25166.26 21779.87 15852.21 
 11807.76 9345.31  6901.16  5555.53  4131.05  1392.38  1060.25  753.49   578.14   415.21   
 311.93   238.43   194.15   166.86   144.28   126.67   109.12   91.56    78.48    67.45    
 57.99    49.96    43.66    38.15    33.72    30.20    27.01    24.42    22.04    19.56    
 16.71    14.15    12.47    11.60    10.89    10.22    9.61     9.13     8.64     8.17     
 7.72     7.34     7.00     6.67     6.39     6.12     5.89     5.68     5.49     5.33     
 5.18     5.03     4.86     4.65     4.41     4.19     3.91     3.63     3.34     3.04     
 2.73     2.40     2.08     1.96     1.95     1.98     2.06     2.14     2.23     2.32     
 2.43     2.54     2.66     2.79     2.94     3.09     3.25     3.42     3.60     3.80     
 4.01     4.24     4.47     4.73     5.01     5.30     5.60     5.94     6.30     6.69     
 7.09     7.52     7.98     8.46     8.96     9.50     10.09    10.71    11.38    12.10    
 12.84    13.63    14.48    15.38    16.32    17.29    18.34    19.48    20.67    21.93    
 23.26    24.66    26.16    27.76    29.47    31.32    33.34    35.52    37.91    40.53    
 43.28    46.37    49.74    53.42    57.41    61.68    66.27    71.01    75.90    81.05    
 86.51    91.94    97.35    102.64   107.76   113.01   118.07   122.85   127.29   131.44   
 135.35   138.82   141.75   144.35   146.44   148.04   149.10   149.63   150.18   149.51   
 148.00   146.45   144.93   142.61   139.89   136.83   133.43   129.59   125.35   121.20   
 93.20    
124989.99 124387.00 123420.49 122055.58 120322.05 117219.82 113707.31 110216.57 106546.02 101541.97 
 96613.57 91333.38 84231.51 77423.46 70199.53 62854.44 55930.91 47690.39 39922.76 32938.97 
 27399.41 24155.66 20916.75 18270.56 15838.43 13710.40 12277.55 10929.84 9734.18  7912.56  
 6629.11  5753.78  5052.44  4359.55  3729.66  2994.53  2617.32  2240.04  1854.91  1447.29  
 1181.76  947.07   695.04   519.40   426.44   349.87   285.80   221.72   157.94   125.86   
 99.64    80.51    66.68    55.51    47.77    41.22    35.82    31.78    28.10    25.05    
 22.66    20.86    19.30    17.56    16.13    14.58    13.00    11.83    11.45    11.23    
 11.08    10.90    10.78    10.55    10.34    10.14    9.99     9.80     9.58     9.23     
 8.53     7.48     6.06     4.39     2.07     1.62     1.66     1.72     1.78     1.86     
 1.93     2.02     2.11     2.22     2.33     2.46     2.59     2.73     2.88     3.04     
 3.22     3.40     3.59     3.80     4.02     4.26     4.52     4.80     5.10     5.42     
 5.75     6.12     6.52     6.93     7.42     7.91     8.42     8.94     9.49     10.08    
 10.72    11.40    12.15    12.90    13.68    14.53    15.46    16.46    17.49    18.56    
 19.70    20.93    22.25    23.65    25.16    26.76    28.57    30.48    32.55    34.84    
 37.41    40.20    43.25    46.58    50.21    54.15    58.37    62.81    67.47    72.44    
 77.56    82.77    87.90    93.27    98.58    103.84   109.03   114.01   118.98   123.69   
 128.17   132.38   136.26   139.86   143.03   145.79   148.04   150.34   151.52   152.02   
 151.55   151.08   150.52   148.93   146.87   144.47   141.66   138.25   134.46   130.68   
 93.20    
124989.99 124931.68 124679.18 124096.70 123091.88 120590.14 117234.01 113682.25 110000.19 105005.64 
 99993.86 94483.35 88369.76 81899.21 74742.91 67277.81 59862.35 53267.28 47314.68 41728.88 
 36838.47 32693.89 29250.33 26760.78 24775.01 22792.28 21069.47 19408.61 18081.96 16879.04 
 15584.77 14517.78 13426.79 12538.12 11679.66 10862.41 10167.38 9505.29  8841.93  8174.03  
 7592.65  6993.53  6463.32  5904.39  5407.43  4948.98  4553.07  4173.60  3791.12  3426.59  
 3117.29  2855.98  2594.67  2333.87  2123.65  1937.23  1772.42  1623.14  1494.95  1364.22  
 1246.03  1133.53  1033.99  936.51   847.87   763.19   687.52   614.17   548.30   484.43   
 425.70   376.62   331.39   290.28   253.04   215.87   185.83   159.06   137.83   119.39   
 102.42   87.42    75.42    64.34    53.43    39.05    13.74    8.81     2.41     1.10     
 0.96     0.90     0.89     0.82     0.82     0.82     0.84     0.85     0.86     0.88     
 0.90     0.92     0.94     0.96     0.98     1.00     1.03     1.06     1.09     1.12     
 1.15     1.18     1.22     1.28     1.32     1.38     1.43     1.49     1.56     1.64     
 1.71     1.81     1.91     2.02     2.14     2.27     2.41     2.56     2.74     2.91     
 3.12     3.34     3.57     3.84     4.12     4.43     4.77     5.16     5.57     6.02     
 6.55     7.12     7.72     8.39     9.10     9.88     10.74    11.66    12.61    13.66    
 14.76    15.90    17.10    18.38    19.76    21.20    22.69    24.31    26.03    27.84    
 29.72    31.70    33.74    35.91    38.20    40.61    43.16    46.13    48.92    52.63    
 55.72    59.37    63.82    68.59    73.54    78.68    83.89    89.22    94.91    100.69   
 93.20    
124989.99 125729.84 126205.32 126193.05 125611.64 123800.34 120938.35 117533.64 113948.95 109786.19 
 105212.59 99863.80 94015.08 87672.75 80868.73 73690.87 66803.74 60364.76 54303.69 48500.57 
 43200.71 38955.14 35514.34 32573.71 30234.10 28106.33 26314.60 24716.95 23168.02 21758.61 
 20434.00 19213.53 18097.39 17029.90 16010.55 15099.04 14228.22 13413.44 12652.92 11986.07 
 11268.85 10551.14 9897.83  9264.06  8642.95  8046.96  7480.63  6935.92  6442.63  5985.26  
 5542.28  5142.91  4781.42  4444.47  4150.46  3892.31  3648.59  3430.40  3239.05  3058.00  
 2875.42  2713.04  2558.43  2405.51  2257.83  2119.08  1982.01  1852.22  1722.49  1596.80  
 1479.61  1372.57  1270.74  1177.12  1083.58  990.04   909.32   832.71   760.60   694.91   
 632.36   577.14   524.05   474.38   432.32   394.19   360.48   331.62   305.94   283.97   
 266.03   248.94   231.26   215.27   200.81   187.57   175.21   164.29   154.52   144.41   
 135.86   128.34   120.83   113.33   106.87   100.97   95.81    90.97    86.54    82.89    
 79.12    75.64    72.74    69.66    66.40    63.30    60.42    57.24    54.39    51.50    
 48.85    45.92    43.15    40.66    37.89    35.04    32.16    29.23    26.13    22.67    
 18.98    14.54    10.83    8.16     6.30     4.83     3.67     3.42     3.60     3.95     
 4.33     4.75     5.23     5.73     6.29     6.89     7.52     8.21     8.93     9.70     
 10.52    11.38    12.26    13.22    14.24    15.31    16.45    17.66    18.98    20.36    
 21.79    23.33    25.02    26.82    28.83    31.02    33.32    35.87    38.62    42.24    
 45.20    49.19    53.16    57.75    62.87    68.30    73.97    80.07    86.29    92.67    
 93.20    
124989.99 126427.05 127537.27 128173.91 128343.77 127948.96 126771.54 124826.83 122379.28 119316.21 
 115385.02 110857.00 105477.70 98871.07 91479.97 84180.91 76948.69 69673.26 62754.24 56439.28 
 50955.03 46405.54 42739.33 39606.07 36917.78 34278.40 32088.04 29968.35 28114.68 26296.08 
 24741.48 23188.35 21778.01 20421.53 19242.54 18101.06 17005.30 16036.38 15147.97 14236.05 
 13373.97 12575.91 11817.38 11119.42 10474.45 9780.18  9176.07  8540.18  7938.95  7377.65  
 6861.24  6366.92  5903.42  5463.23  5064.28  4718.02  4406.04  4136.15  3889.04  3663.12  
 3460.72  3275.58  3087.69  2905.67  2742.47  2579.26  2416.28  2274.18  2131.36  1989.30  
 1853.52  1722.07  1590.67  1470.07  1355.74  1244.22  1140.30  1042.71  952.98   869.72   
 787.09   709.94   642.76   583.65   529.82   480.36   440.62   409.98   381.93   352.18   
 333.21   314.51   296.09   278.72   263.37   250.31   237.25   224.22   213.44   203.36   
 194.45   186.42   178.94   172.18   165.43   159.96   154.29   149.27   144.69   140.35   
 136.33   132.69   128.93   125.25   121.93   118.85   115.73   112.79   109.71   106.84   
 104.27   101.72   99.26    96.81    94.35    91.90    89.53    86.97    84.68    82.05    
 79.40    77.10    74.19    71.70    69.29    66.90    64.31    61.25    58.36    55.65    
 52.70    49.89    46.62    43.44    40.89    37.04    33.13    30.75    14.80    10.32    
 8.64     8.50     9.25     10.18    11.16    12.18    13.25    14.36    15.58    16.86    
 18.16    19.44    20.80    22.34    24.04    25.90    27.90    30.17    32.54    35.22    
 38.27    42.00    45.74    50.52    55.41    60.82    66.78    73.11    79.95    86.82    
 93.20    
124989.99 126961.71 128550.76 129985.71 131264.46 132296.71 132957.17 132590.52 130710.29 127684.85 
 123886.92 119303.97 113800.83 107300.84 100192.80 92547.43 84748.33 76986.39 69446.96 62187.40 
 56168.62 51256.80 47414.88 44034.90 40964.62 38210.74 35681.91 33375.75 31247.37 29164.38 
 27423.00 25668.98 24021.99 22550.66 21203.95 19961.57 18783.61 17630.00 16578.82 15493.83 
 14479.89 13530.11 12596.81 11774.01 10952.21 10130.41 9437.51  8815.76  8236.07  7689.75  
 7185.76  6739.80  6329.40  5954.34  5592.07  5242.39  4915.36  4620.74  4359.01  4104.80  
 3880.05  3631.63  3416.92  3215.02  3023.29  2840.10  2660.62  2484.79  2311.81  2147.31  
 1995.36  1851.98  1714.68  1580.26  1454.32  1336.10  1219.96  1115.70  1011.55  918.52   
 835.22   756.28   683.72   617.45   560.93   514.06   472.66   436.76   400.36   374.39   
 355.44   336.91   318.81   301.45   286.44   272.48   261.39   251.46   243.36   235.92   
 228.84   222.71   217.06   211.99   206.96   202.11   197.96   194.11   190.57   187.16   
 183.84   180.77   177.67   174.22   171.50   168.71   165.95   163.38   160.67   158.00   
 155.42   152.85   150.22   147.64   144.50   141.79   138.82   135.89   132.97   130.04   
 126.62   123.20   120.16   117.10   113.92   110.42   107.29   104.08   100.49   96.59    
 92.84    88.33    83.94    79.98    76.59    74.53    73.33    69.13    65.39    61.99    
 58.23    54.41    51.22    46.76    44.07    41.52    23.12    16.69    15.03    16.53    
 16.79    17.56    19.14    20.90    22.74    24.64    26.46    28.28    30.35    32.71    
 35.37    38.43    41.99    45.95    50.46    55.56    61.61    68.02    74.85    81.97    
 93.20    
124989.99 127327.58 129433.88 131758.37 134444.00 137179.58 138808.32 138652.05 136928.92 134355.97 
 131363.50 127338.49 122422.06 116466.44 109036.68 100223.41 91308.97 82863.98 74619.22 67494.45 
 61223.61 56159.68 51968.11 48514.20 45451.77 42664.62 40039.77 37409.45 34985.10 32885.41 
 30797.88 28961.27 27386.16 25787.76 24189.36 22591.70 21059.75 19631.78 18303.80 17078.91 
 16012.84 15035.77 14148.98 13304.09 12429.89 11671.05 10914.55 10221.59 9537.12  8890.61  
 8262.86  7693.03  7198.35  6744.90  6319.93  5930.03  5585.72  5258.49  4949.43  4682.53  
 4415.93  4174.09  3922.19  3667.76  3435.82  3223.50  3024.40  2821.45  2634.13  2446.75  
 2253.48  2068.56  1901.89  1743.63  1601.73  1468.50  1342.03  1225.09  1114.37  1013.64  
 920.11   832.47   753.35   685.15   627.15   575.53   530.42   488.48   447.48   420.99   
 400.01   380.06   359.34   340.24   322.17   307.37   294.68   284.55   275.89   269.16   
 263.53   258.90   254.80   251.22   248.07   245.55   243.71   242.08   239.56   237.04   
 235.37   233.75   232.11   230.09   228.01   225.81   222.90   218.95   214.91   210.63   
 206.16   201.56   196.91   192.31   187.85   183.63   179.66   176.29   172.60   169.00   
 165.26   161.84   157.79   153.95   150.18   146.32   142.31   138.10   134.16   129.72   
 124.32   118.51   112.75   106.51   101.96   97.25    93.95    89.91    85.56    80.98    
 80.03    80.93    76.54    71.75    67.83    65.40    62.50    59.02    55.42    53.09    
 28.04    19.56    20.16    21.36    22.66    24.81    27.15    29.52    31.69    33.68    
 35.88    38.33    41.18    44.53    48.58    53.25    58.50    64.73    71.79    79.16    
 93.20    
124989.99 127498.56 130026.35 133081.30 136695.25 139955.62 141585.07 141430.34 140198.30 138319.13 
 135416.88 131832.47 126844.27 119693.32 111177.71 102286.87 93318.61 84831.54 76768.51 69532.44 
 63368.62 58528.69 54733.84 51367.74 48195.31 45329.52 42858.49 40539.50 38373.49 36422.56 
 34584.48 32589.17 30758.63 29000.85 27279.33 25637.33 24114.84 22775.59 21425.58 19996.68 
 18729.14 17645.15 16570.81 15496.55 14442.08 13447.18 12476.55 11629.93 10784.31 9938.68  
 9201.87  8531.60  7936.57  7413.65  6966.01  6587.28  6276.99  6028.31  5805.03  5571.92  
 5268.82  4945.17  4697.05  4419.22  4164.75  3885.63  3585.42  3329.58  3009.08  2696.47  
 2446.18  2238.98  2063.92  1897.05  1742.68  1596.05  1462.74  1335.96  1218.07  1113.90  
 1009.84  915.70   833.15   763.20   702.52   647.63   596.90   546.68   503.17   477.47   
 454.56   431.51   406.29   384.68   362.76   345.51   329.55   316.88   307.17   299.01   
 292.76   288.17   284.80   282.35   280.08   278.38   276.81   275.85   274.29   272.33   
 270.37   268.75   267.40   266.09   264.52   262.30   259.52   256.22   252.35   247.22   
 242.24   237.19   231.74   225.82   220.32   214.66   208.99   203.54   198.28   193.14   
 188.21   183.59   179.05   174.56   169.90   165.45   154.48   147.99   144.27   141.21   
 137.56   133.43   129.50   124.64   119.77   114.89   110.52   106.10   101.84   97.48    
 91.63    85.99    82.49    83.12    81.25    75.56    71.13    70.45    69.24    66.97    
 61.25    58.75    25.36    23.69    25.51    27.64    30.21    32.97    35.64    38.11    
 39.86    42.06    44.47    47.25    50.79    55.33    60.67    67.14    74.14    81.58    
 93.20    
124989.99 127550.85 130094.76 133228.41 137126.54 140551.96 142440.89 142653.91 141710.53 139690.98 
 136735.18 133106.23 127915.65 120555.44 112115.46 103217.31 94315.15 85734.97 77662.56 70428.72 
 64587.07 59882.40 56116.25 52506.24 49431.17 46836.43 44446.18 42318.26 40654.64 38871.29 
 36981.86 35021.91 33240.32 31499.86 29905.91 28337.97 26969.58 25437.65 23905.71 22376.28 
 21048.36 19707.40 18379.40 17184.20 15960.65 14785.69 13727.98 12695.34 11719.62 10816.60 
 10001.78 9297.25  8645.90  8024.15  7475.10  7139.04  7038.73  6804.98  6604.08  6401.49  
 6023.08  5736.54  5404.26  5126.02  4881.56  4627.27  4149.94  3768.68  3340.70  2964.48  
 2700.47  2437.27  2241.80  2062.36  1894.69  1727.92  1571.08  1432.89  1307.83  1187.92  
 1081.37  980.78   893.43   817.14   749.80   688.87   634.00   580.82   534.37   504.28   
 478.00   453.44   427.59   403.13   378.73   359.43   341.76   326.93   315.20   305.07   
 297.80   292.20   288.32   285.19   282.67   280.36   278.44   276.70   274.90   272.11   
 268.93   265.70   262.96   260.34   257.94   255.28   252.48   249.26   246.01   240.97   
 235.93   230.89   226.04   221.03   215.91   210.94   205.77   200.85   196.08   191.47   
 186.99   182.67   178.42   174.01   169.52   165.20   160.80   152.46   144.05   140.11   
 136.29   133.11   129.63   125.67   121.32   116.80   112.53   108.62   104.87   100.99   
 96.75    90.81    86.80    84.27    84.88    83.43    81.27    77.52    73.20    74.28    
 68.06    62.89    53.73    26.92    29.11    31.08    33.77    36.87    39.91    42.85    
 45.48    47.91    50.36    52.79    55.56    59.26    63.92    69.76    76.89    84.92    
 93.20    
124989.99 127296.12 129737.45 132768.02 136340.13 139268.56 140975.17 141168.61 140409.65 138341.05 
 135097.41 131299.21 126099.80 118675.06 110099.60 100919.09 92026.80 83600.91 75853.33 68703.39 
 62710.01 57858.76 54141.57 50773.37 47632.94 44979.79 42594.96 40454.93 38625.97 36961.62 
 35350.07 33656.24 31898.55 30274.38 28659.28 26961.38 25440.39 24098.45 22611.91 21143.85 
 19821.75 18520.78 17306.70 16180.16 15022.86 13963.88 12953.09 12017.68 11154.09 10291.06 
 9529.03  8825.17  8233.31  7672.49  7171.10  6783.76  6536.17  6317.77  6043.20  5714.56  
 5397.50  5086.59  4817.20  4527.85  4275.86  4017.83  3673.80  3361.39  3032.07  2752.20  
 2517.55  2322.07  2137.40  1960.29  1801.23  1649.53  1508.30  1374.35  1254.45  1151.69  
 1049.06  946.44   862.93   789.60   725.29   668.90   615.95   565.77   523.42   495.07   
 469.56   445.07   418.94   396.51   373.20   354.29   336.78   322.73   311.20   301.07   
 292.85   286.19   280.62   275.71   270.81   266.37   262.00   258.09   253.41   248.55   
 243.77   239.81   235.86   232.17   228.56   225.00   221.31   217.50   213.38   208.48   
 204.22   200.31   196.45   192.37   188.37   184.59   180.77   176.91   173.14   169.54   
 165.93   162.07   158.16   154.30   150.61   147.00   139.27   133.61   130.33   127.06   
 123.79   120.38   117.10   113.52   110.21   107.40   104.30   101.31   97.87    94.14    
 90.01    87.63    84.35    84.49    81.89    78.46    76.43    74.20    73.21    57.77    
 64.60    61.83    30.81    31.40    33.32    35.98    39.28    42.72    46.00    49.02    
 51.81    54.63    57.33    59.88    62.63    65.98    70.14    75.46    81.67    88.62    
 93.20    
124989.99 126969.03 128834.40 131074.47 133751.01 136434.06 138043.29 138579.31 137494.22 135388.38 
 131932.69 127367.43 122063.31 115402.28 107344.03 98486.93 89875.39 81429.17 73642.77 66481.44 
 60191.28 55140.04 51127.19 47806.89 44862.74 42145.01 39625.73 37270.68 35173.11 33246.44 
 31479.65 29905.46 28388.14 27034.67 25553.72 24072.75 22591.44 21081.44 19720.11 18399.86 
 17276.40 16192.22 15158.68 14214.14 13308.75 12483.24 11668.85 10885.22 10142.44 9417.58  
 8758.22  8146.44  7613.64  7093.11  6622.02  6206.48  5837.04  5488.86  5153.33  4876.91  
 4612.30  4334.63  4064.88  3791.09  3544.07  3320.55  3117.27  2905.25  2696.22  2487.45  
 2301.62  2125.47  1958.02  1797.94  1654.39  1516.98  1385.16  1261.83  1148.54  1046.60  
 949.64   860.66   778.86   709.71   650.80   597.92   550.16   505.59   465.24   438.89   
 416.51   395.53   373.11   352.42   332.75   315.88   300.29   287.72   276.27   266.78   
 258.50   251.26   244.79   237.72   230.67   224.91   219.55   214.24   209.18   204.70   
 200.35   196.24   192.38   188.82   185.26   181.95   178.37   174.54   171.23   167.67   
 164.09   160.37   156.83   153.48   150.11   146.83   143.85   141.40   138.28   135.13   
 132.22   129.48   126.51   123.54   121.16   118.52   115.79   113.14   110.76   108.26   
 105.08   100.93   97.02    92.52    88.82    86.07    84.12    82.17    81.05    80.01    
 78.48    76.65    72.70    70.12    68.08    66.36    65.05    62.49    55.75    52.14    
 30.86    30.77    32.65    34.95    37.96    41.48    45.05    48.72    52.35    55.84    
 59.08    62.11    64.91    67.81    71.03    74.68    78.84    83.65    89.20    95.08    
 93.20    
124989.99 126435.26 127675.95 128958.24 130449.12 132051.15 133070.33 132774.15 131265.24 128454.41 
 124725.42 120171.98 114202.14 107164.16 99846.59 92094.72 84035.38 76120.41 68591.14 61579.33 
 55454.99 50696.34 46809.32 43487.19 40625.26 38030.20 35637.58 33511.64 31487.73 29547.15 
 27779.92 26081.00 24571.03 23160.86 21833.99 20633.45 19524.28 18462.98 17424.51 16355.96 
 15306.70 14292.93 13408.93 12463.36 11678.30 10894.66 10111.02 9475.74  8826.52  8235.34  
 7704.21  7215.00  6758.79  6324.36  5912.40  5528.49  5179.85  4854.19  4560.96  4278.75  
 4012.56  3757.93  3525.75  3314.45  3110.52  2913.01  2733.06  2548.50  2365.08  2199.19  
 2044.20  1894.07  1749.15  1609.04  1476.53  1358.81  1242.42  1140.69  1039.10  937.51   
 852.60   772.71   698.23   632.66   575.33   527.41   484.89   448.66   412.46   386.44   
 366.34   346.25   326.38   306.76   290.06   274.62   261.08   249.18   239.06   229.50   
 220.38   212.51   205.11   197.98   191.37   185.23   179.71   174.65   169.77   165.35   
 161.50   157.44   153.34   149.49   146.38   143.09   140.24   137.14   134.33   131.47   
 128.92   126.04   123.16   120.39   117.98   115.49   113.13   110.86   108.73   106.68   
 104.43   101.87   99.52    97.32    95.15    93.07    90.72    88.34    85.90    83.38    
 80.31    77.17    74.39    71.97    69.30    67.30    64.70    60.86    58.19    55.04    
 52.68    50.64    48.99    46.33    46.05    31.08    25.44    26.88    28.43    30.16    
 32.23    35.26    38.41    41.73    45.06    48.44    51.88    55.32    59.04    62.75    
 65.98    68.88    71.81    75.02    78.67    82.77    87.27    92.15    97.24    102.62   
 93.20    
124989.99 125875.71 126407.22 126738.20 126970.76 127137.14 126997.09 126087.93 124271.02 121390.38 
 117193.41 112119.69 106285.66 99616.24 92385.91 84995.84 77646.54 70439.25 63352.72 57164.88 
 51700.07 46999.29 43122.68 39842.73 37105.06 34600.29 32289.75 30209.09 28394.22 26594.71 
 25081.15 23567.58 22055.92 20724.17 19570.27 18435.64 17426.41 16431.48 15504.91 14501.21 
 13696.57 12884.73 12122.30 11400.59 10702.73 10047.63 9420.91  8814.63  8195.03  7654.81  
 7094.81  6600.84  6130.86  5679.68  5244.86  4860.20  4528.72  4237.53  3967.69  3728.25  
 3512.34  3310.05  3119.33  2936.64  2762.15  2608.17  2454.30  2310.12  2163.91  2029.82  
 1892.23  1754.89  1620.80  1497.81  1379.26  1268.25  1160.83  1061.78  971.21   885.78   
 802.41   724.22   655.14   594.50   540.70   492.05   449.79   416.96   389.43   361.98   
 342.52   323.74   304.59   286.57   270.06   255.58   242.62   229.66   216.72   205.63   
 195.57   186.21   177.89   170.29   163.59   157.07   150.45   144.68   139.73   135.12   
 130.88   127.08   123.04   119.42   116.11   112.91   110.11   106.99   104.09   101.07   
 98.36    95.41    92.59    90.16    87.49    84.85    82.43    80.07    77.42    74.94    
 72.15    69.10    66.61    64.15    62.19    59.44    57.01    54.59    52.34    49.95    
 47.24    44.35    41.61    38.64    36.12    33.59    28.78    16.12    13.62    13.58    
 15.02    16.80    18.78    20.89    23.17    25.59    28.16    30.83    33.70    36.65    
 39.69    42.76    45.90    49.13    52.40    55.87    59.38    62.88    66.21    69.57    
 72.45    75.80    79.51    83.62    87.76    92.20    96.86    101.60   106.59   111.43   
 93.20    
124989.99 125214.16 125063.24 124607.73 123926.62 122929.18 121105.93 118414.52 115167.42 111426.28 
 107086.03 102012.66 96048.43 89575.67 82715.04 75263.87 68328.61 61636.27 55391.93 49718.86 
 44684.71 40364.44 36797.86 33785.72 31283.21 29149.00 27354.53 25571.42 23885.13 22391.34 
 21008.89 19795.65 18654.36 17560.67 16518.26 15609.38 14650.69 13844.34 13017.93 12275.07 
 11564.01 10853.25 10142.49 9504.84  8880.14  8255.96  7712.72  7197.16  6688.55  6196.28  
 5735.98  5327.75  4938.26  4603.25  4275.89  3981.12  3717.97  3488.82  3273.84  3072.08  
 2886.30  2712.64  2550.88  2398.34  2242.33  2095.40  1957.68  1829.56  1701.92  1580.63  
 1464.56  1358.05  1254.29  1162.50  1070.83  979.16   897.95   822.21   750.84   684.50   
 623.11   568.27   515.95   466.23   422.78   384.57   351.73   323.82   298.21   277.57   
 259.16   244.01   228.42   213.64   199.85   187.12   176.72   166.04   155.53   145.61   
 136.43   129.09   120.65   112.20   106.06   100.72   95.23    89.82    85.31    81.50    
 77.36    73.90    70.03    66.73    63.49    59.90    56.66    53.75    50.80    47.87    
 44.62    41.65    38.73    35.81    33.14    30.27    27.42    24.35    21.02    17.21    
 13.35    9.58     7.78     6.42     5.77     5.89     6.41     6.94     7.57     8.28     
 9.06     9.89     10.81    11.83    12.96    14.14    15.45    16.88    18.44    20.13    
 21.94    23.85    25.87    28.10    30.48    32.97    35.59    38.38    41.29    44.28    
 47.37    50.58    53.80    57.14    60.52    63.98    67.54    71.10    74.65    78.25    
 81.97    85.89    89.95    94.15    98.54    103.18   107.96   112.67   117.31   121.93   
 93.20    
124989.99 124740.65 124281.56 123613.84 122713.59 120815.39 117836.31 114328.55 110913.48 106250.86 
 101200.61 95451.90 89191.44 82540.42 75297.74 67731.19 60288.78 53595.95 47586.20 41989.11 
 37051.02 32886.05 29479.62 26930.75 24808.05 22741.53 20981.25 19323.98 18043.49 16676.68 
 15348.36 14238.54 13135.30 12202.64 11364.15 10526.70 9806.43  9094.27  8441.92  7848.64  
 7233.62  6662.50  6147.39  5617.67  5148.07  4755.97  4373.20  3983.67  3637.94  3263.69  
 2959.62  2677.12  2427.02  2189.77  1992.07  1817.74  1657.35  1521.25  1384.62  1257.63  
 1151.75  1046.09  940.42   851.16   762.19   682.39   604.30   531.73   466.07   408.02   
 355.46   306.26   263.23   224.64   190.13   162.08   135.48   114.82   94.22    77.95    
 64.47    54.11    44.92    36.39    28.83    21.16    2.66     2.66     2.18     2.06     
 2.02     2.02     2.05     2.04     2.04     2.09     2.18     2.27     2.37     2.47     
 2.58     2.70     2.82     2.95     3.09     3.24     3.41     3.58     3.75     3.94     
 4.15     4.38     4.62     4.87     5.15     5.46     5.77     6.12     6.51     6.93     
 7.37     7.82     8.30     8.82     9.38     9.97     10.62    11.33    12.08    12.87    
 13.71    14.63    15.61    16.66    17.80    19.04    20.40    21.87    23.50    25.34    
 27.33    29.57    32.06    34.90    38.00    41.38    45.05    48.88    53.01    57.53    
 62.32    67.19    72.13    77.07    81.91    86.82    91.92    96.94    101.72   106.28   
 110.66   114.91   118.79   122.38   125.52   128.23   130.52   132.34   133.54   134.11   
 134.05   133.43   132.30   130.66   128.54   125.87   122.77   119.26   115.33   110.90   
 93.20    
124989.99 124045.46 123361.59 122914.90 122306.45 120959.58 118030.21 114193.09 110935.12 105872.16 
 100245.63 94816.37 87715.84 78706.04 68340.29 58001.02 49254.06 42028.63 36393.44 31268.08 
 26594.99 21935.53 18997.72 16808.15 14899.25 12385.65 10068.75 8721.02  7590.12  6760.07  
 5883.44  4705.52  3825.93  3467.85  2984.34  2500.84  2018.96  1720.95  1457.92  1044.31  
 748.16   612.24   495.70   392.94   323.33   253.72   184.40   148.28   120.85   98.16    
 83.17    71.84    61.62    52.25    45.60    40.34    36.05    32.67    29.47    26.80    
 24.44    22.69    21.01    19.13    17.16    14.76    14.15    13.98    13.74    13.54    
 13.35    13.34    13.33    13.31    13.21    13.15    13.03    12.92    12.69    12.14    
 11.22    9.77     7.60     5.22     2.33     1.65     1.70     1.75     1.82     1.89     
 1.98     2.07     2.17     2.27     2.39     2.52     2.65     2.79     2.94     3.10     
 3.26     3.43     3.62     3.81     4.03     4.25     4.49     4.75     5.02     5.32     
 5.62     5.95     6.32     6.72     7.14     7.59     8.08     8.59     9.11     9.66     
 10.25    10.89    11.58    12.28    13.00    13.78    14.59    15.50    16.46    17.45    
 18.51    19.62    20.81    22.08    23.43    24.92    26.54    28.30    30.20    32.29    
 34.63    37.17    40.00    43.06    46.43    50.11    54.06    58.26    62.67    67.40    
 72.22    77.20    82.10    87.16    92.16    97.05    101.88   106.45   110.97   115.21   
 119.17   122.81   126.10   129.09   131.70   133.76   135.30   136.39   136.81   136.64   
 135.86   134.48   132.53   130.05   127.08   123.54   119.41   114.88   109.95   104.62   
 93.20    
124989.99 123680.27 123396.26 123186.90 122894.79 122083.62 119113.09 110197.21 97270.71 85529.67 
 78135.11 68604.84 59871.13 53079.89 42196.06 33969.11 29290.83 22983.34 16745.81 13708.87 
 11201.58 8700.16  6198.74  2513.53  1159.06  899.49   651.40   476.36   351.86   259.52   
 204.75   174.46   153.85   136.25   119.74   103.25   90.66    80.39    70.64    62.28    
 55.02    47.65    42.15    37.33    33.29    29.72    26.53    23.56    20.57    16.42    
 14.32    13.24    12.44    11.69    10.94    10.24    9.45     8.86     8.36     7.98     
 7.57     7.22     6.90     6.57     6.36     6.17     5.96     5.75     5.59     5.44     
 5.31     5.15     4.96     4.77     4.62     4.39     4.08     3.71     3.42     3.10     
 2.77     2.39     2.10     2.01     2.00     2.04     2.11     2.19     2.29     2.37     
 2.48     2.59     2.71     2.85     2.99     3.16     3.34     3.51     3.71     3.90     
 4.12     4.35     4.59     4.83     5.09     5.38     5.68     6.00     6.33     6.71     
 7.11     7.52     7.96     8.43     8.92     9.44     9.98     10.56    11.20    11.89    
 12.59    13.34    14.11    14.96    15.85    16.78    17.75    18.79    19.93    21.13    
 22.37    23.70    25.09    26.56    28.18    29.98    31.92    34.02    36.25    38.72    
 41.40    44.26    47.50    51.09    54.99    59.14    63.49    68.01    72.67    77.69    
 82.94    88.21    93.42    98.51    103.38   108.04   112.66   117.21   121.38   125.17   
 128.60   131.58   134.26   136.41   138.03   139.26   140.11   140.21   139.84   138.92   
 137.46   135.29   132.83   129.68   126.15   121.82   117.08   112.02   106.42   100.30   
 93.20    
124989.99 123355.94 123125.06 123052.00 122833.84 118445.60 104568.30 93933.16 82708.63 72860.47 
 60438.53 49739.33 45049.85 33362.46 26142.26 18947.23 14455.40 7800.98  1210.02  974.29   
 735.00   500.14   371.68   339.20   280.76   222.32   164.03   122.50   95.47    81.23    
 72.15    64.68    58.90    54.27    49.67    45.80    41.48    38.04    34.17    29.93    
 25.51    23.01    21.76    20.43    19.44    18.33    17.26    15.81    14.65    13.32    
 12.15    11.14    10.05    9.01     8.04     7.32     6.82     6.44     6.06     5.63     
 5.28     4.95     4.66     4.40     4.15     3.91     3.64     3.46     3.30     3.18     
 3.06     2.93     2.80     2.68     2.57     2.48     2.39     2.30     2.23     2.16     
 2.13     2.14     2.16     2.21     2.28     2.36     2.43     2.51     2.59     2.68     
 2.77     2.87     2.97     3.09     3.22     3.36     3.52     3.69     3.87     4.05     
 4.26     4.48     4.70     4.96     5.22     5.50     5.79     6.11     6.46     6.83     
 7.22     7.66     8.15     8.66     9.19     9.75     10.37    11.00    11.67    12.39    
 13.17    14.01    14.92    15.83    16.84    17.87    19.00    20.18    21.44    22.77    
 24.22    25.74    27.37    29.09    30.90    32.85    35.02    37.32    39.72    42.39    
 45.37    48.53    51.96    55.64    59.66    63.97    68.45    73.21    78.12    83.29    
 88.51    93.88    99.15    104.57   109.82   114.93   119.80   124.21   128.45   132.16   
 135.43   138.15   140.32   141.90   142.91   143.37   143.05   142.24   140.90   139.50   
 137.09   134.16   130.88   127.11   122.90   118.31   113.28   107.87   101.97   95.77    
 93.20    
124989.99 123394.82 123187.48 123102.22 120400.38 103531.14 92831.88 81215.17 71015.30 57332.12 
 50519.24 36037.31 28457.61 20040.32 10552.69 1053.75  830.21   701.04   556.20   406.46   
 266.60   235.33   184.87   179.85   152.33   130.49   115.16   99.90    84.64    73.35    
 60.35    56.37    42.05    43.33    37.64    30.60    34.28    27.92    26.27    24.83    
 24.71    23.09    20.09    18.28    18.12    15.06    14.37    13.14    12.12    10.91    
 9.97     9.10     7.77     6.29     5.58     5.31     5.11     4.87     4.57     4.26     
 3.98     3.76     3.51     3.29     3.08     2.92     2.76     2.62     2.50     2.39     
 2.30     2.23     2.18     2.12     2.08     2.05     2.03     2.00     1.98     1.98     
 1.98     2.00     2.05     2.11     2.18     2.26     2.35     2.43     2.54     2.64     
 2.75     2.86     2.98     3.11     3.25     3.40     3.57     3.75     3.95     4.18     
 4.41     4.65     4.92     5.20     5.50     5.82     6.16     6.53     6.92     7.33     
 7.77     8.25     8.74     9.26     9.82     10.44    11.10    11.78    12.53    13.32    
 14.15    15.05    16.01    17.02    18.10    19.25    20.51    21.85    23.26    24.74    
 26.27    27.92    29.68    31.57    33.57    35.66    37.91    40.34    42.98    45.80    
 48.83    52.16    55.82    59.77    64.00    68.63    73.44    78.43    83.60    88.96    
 94.59    100.07   105.51   110.78   115.85   120.97   125.83   130.42   134.77   138.75   
 142.14   144.89   146.97   148.34   148.95   148.79   147.82   146.20   143.99   141.10   
 137.69   133.89   129.89   125.47   121.01   116.11   110.84   105.37   99.58    93.35    
 93.20    
124989.99 122901.37 122682.26 122462.03 115452.24 96819.41 87492.74 77922.31 61876.31 55300.02 
 39636.57 29868.25 20099.93 10331.61 650.00   610.24   423.61   254.08   314.91   260.39   
 205.86   151.48   114.91   107.21   66.55    39.82    26.13    22.52    19.44    17.56    
 15.96    14.08    10.88    9.54     8.87     8.27     7.84     7.34     6.91     6.55     
 6.29     6.06     5.84     5.60     5.42     5.11     4.86     4.68     4.41     4.18     
 4.02     3.83     3.63     3.48     3.33     3.19     3.01     2.88     2.79     2.71     
 2.62     2.52     2.45     2.40     2.35     2.32     2.28     2.24     2.21     2.17     
 2.14     2.11     2.09     2.07     2.05     2.05     2.05     2.05     2.06     2.06     
 2.08     2.11     2.16     2.20     2.25     2.32     2.39     2.46     2.54     2.63     
 2.73     2.83     2.92     3.02     3.15     3.30     3.47     3.65     3.86     4.09     
 4.33     4.59     4.89     5.20     5.54     5.87     6.24     6.62     7.04     7.46     
 7.93     8.42     8.92     9.49     10.06    10.69    11.36    12.06    12.81    13.61    
 14.46    15.43    16.46    17.51    18.61    19.81    21.08    22.47    23.96    25.50    
 27.11    28.83    30.67    32.57    34.58    36.67    38.99    41.41    43.90    46.67    
 49.74    53.02    56.58    60.52    64.73    69.31    74.17    79.28    84.64    90.32    
 96.05    101.88   107.56   113.37   118.83   124.19   129.20   133.82   138.30   142.36   
 146.16   149.50   152.10   153.95   154.96   155.12   154.40   152.73   150.22   147.07   
 143.21   139.02   134.59   129.78   124.56   119.38   113.88   108.26   102.29   95.93    
 93.20    
124989.99 122863.52 122560.09 122292.22 112541.48 96313.00 85136.57 73961.85 58534.88 50929.42 
 36869.63 26359.91 16033.86 12779.79 9602.94  6426.09  3249.24  72.39    24.02    19.40    
 16.87    15.15    13.89    12.28    10.73    9.59     8.77     8.26     8.21     8.23     
 8.08     6.67     5.67     5.27     5.24     5.39     5.56     5.73     5.53     5.39     
 5.22     5.16     5.02     4.95     4.72     4.57     4.60     4.65     4.53     4.27     
 4.03     4.00     3.89     3.81     3.76     3.73     3.61     3.51     3.41     3.29     
 3.20     3.16     3.12     3.06     2.98     2.90     2.82     2.76     2.69     2.62     
 2.54     2.49     2.45     2.41     2.39     2.38     2.38     2.37     2.37     2.40     
 2.44     2.48     2.53     2.62     2.79     2.94     3.05     3.14     3.23     3.32     
 3.42     3.53     3.62     3.68     3.73     3.82     3.93     4.07     4.25     4.47     
 4.72     4.99     5.28     5.60     5.95     6.32     6.71     7.11     7.52     7.96     
 8.42     8.90     9.40     9.94     10.53    11.18    11.88    12.63    13.45    14.31    
 15.23    16.20    17.24    18.34    19.53    20.78    22.17    23.62    25.12    26.73    
 28.39    30.13    32.00    33.93    35.98    38.09    40.31    42.74    45.32    48.06    
 51.01    54.26    57.84    61.78    66.03    70.67    75.62    80.78    86.18    92.00    
 98.02    104.01   109.91   115.60   121.12   126.56   131.61   136.27   140.60   144.71   
 148.46   151.77   154.52   156.51   157.60   157.78   157.12   155.43   152.84   149.53   
 145.64   141.36   136.84   132.22   127.49   122.71   117.71   112.52   106.96   100.56   
 93.20    
