IESNA:LM-63-2002
[TEST] 1
[TESTLAB] AOK
[TESTDATE] 2022-05-11
[ISSUEDATE] 2022-05-12 08:04:30
[NEARFIELD] 
[LAMPPOSITION] 0,0
[OTHER] EVERFINE GO-2000A_V1 SYSTEM
[MANUFAC] AOK
[LUMCAT] A
[LUMINAIRE] AOK-600WiSF-HVY-S5-00-5070-3585D-P
[LAMPCAT] B
[LAMP] 5050
[BALLAST] E
[BALLASTCAT] F
[OTHER] 
[OTHER] Gamma(deg)    Fz(lm)      Ft(lm)     %Lum    %Lamp
[OTHER]   0- 10      6412.73     6412.73     7.83     7.83
[OTHER]  10- 20     13825.64    20238.37    24.71    24.71
[OTHER]  20- 30     16153.85    36392.22    44.44    44.44
[OTHER]  30- 40     15496.30    51888.52    63.37    63.37
[OTHER]  40- 50     12683.59    64572.10    78.85    78.85
[OTHER]  50- 60      9054.84    73626.95    89.91    89.91
[OTHER]  60- 70      4951.08    78578.03    95.96    95.96
[OTHER]  70- 80      1954.88    80532.91    98.35    98.35
[OTHER]  80- 90       581.27    81114.18    99.06    99.06
[OTHER]  90-100       218.37    81332.55    99.32    99.32
[OTHER] 100-110       139.13    81471.68    99.49    99.49
[OTHER] 110-120       113.82    81585.50    99.63    99.63
[OTHER] 120-130        94.00    81679.50    99.75    99.75
[OTHER] 130-140        74.37    81753.87    99.84    99.84
[OTHER] 140-150        59.39    81813.27    99.91    99.91
[OTHER] 150-160        42.94    81856.21    99.96    99.96
[OTHER] 160-170        23.36    81879.57    99.99    99.99
[OTHER] 170-180         8.13    81887.70   100.00   100.00
[OTHER] 
TILT=NONE
1 81888 1 181 25 1 2 0.150 0.200 0.000
1.000 1 600.352
0.0    1.0    2.0    3.0    4.0    5.0    6.0    7.0    8.0    9.0    
 10.0   11.0   12.0   13.0   14.0   15.0   16.0   17.0   18.0   19.0   
 20.0   21.0   22.0   23.0   24.0   25.0   26.0   27.0   28.0   29.0   
 30.0   31.0   32.0   33.0   34.0   35.0   36.0   37.0   38.0   39.0   
 40.0   41.0   42.0   43.0   44.0   45.0   46.0   47.0   48.0   49.0   
 50.0   51.0   52.0   53.0   54.0   55.0   56.0   57.0   58.0   59.0   
 60.0   61.0   62.0   63.0   64.0   65.0   66.0   67.0   68.0   69.0   
 70.0   71.0   72.0   73.0   74.0   75.0   76.0   77.0   78.0   79.0   
 80.0   81.0   82.0   83.0   84.0   85.0   86.0   87.0   88.0   89.0   
 90.0   91.0   92.0   93.0   94.0   95.0   96.0   97.0   98.0   99.0   
 100.0  101.0  102.0  103.0  104.0  105.0  106.0  107.0  108.0  109.0  
 110.0  111.0  112.0  113.0  114.0  115.0  116.0  117.0  118.0  119.0  
 120.0  121.0  122.0  123.0  124.0  125.0  126.0  127.0  128.0  129.0  
 130.0  131.0  132.0  133.0  134.0  135.0  136.0  137.0  138.0  139.0  
 140.0  141.0  142.0  143.0  144.0  145.0  146.0  147.0  148.0  149.0  
 150.0  151.0  152.0  153.0  154.0  155.0  156.0  157.0  158.0  159.0  
 160.0  161.0  162.0  163.0  164.0  165.0  166.0  167.0  168.0  169.0  
 170.0  171.0  172.0  173.0  174.0  175.0  176.0  177.0  178.0  179.0  
 180.0  
0.0    15.0   30.0   45.0   60.0   75.0   90.0   105.0  120.0  135.0  
 150.0  165.0  180.0  195.0  210.0  225.0  240.0  255.0  270.0  285.0  
 300.0  315.0  330.0  345.0  360.0  
70119.99 66937.11 64883.48 63710.62 59789.27 51882.80 44984.32 38262.18 29370.07 24136.08 
 16382.90 10646.02 5751.29  865.71   150.11   93.78    43.86    24.43    17.51    14.62    
 12.73    11.44    10.38    9.54     8.69     7.93     7.24     6.74     6.21     5.80     
 5.56     5.31     5.14     4.97     4.84     4.70     4.66     4.68     4.77     4.79     
 4.82     4.88     4.90     4.84     4.73     4.64     4.55     4.46     4.41     4.29     
 4.20     4.10     4.03     4.00     3.96     3.88     3.84     3.80     3.76     3.70     
 3.67     3.64     3.62     3.56     3.52     3.49     3.49     3.46     3.44     3.41     
 3.37     3.35     3.33     3.33     3.33     3.34     3.34     3.34     3.34     3.38     
 3.41     3.49     3.56     3.64     3.72     3.84     3.97     4.11     4.28     4.48     
 4.69     4.94     5.22     5.52     5.85     6.21     6.62     7.06     7.54     8.04     
 8.59     9.20     9.85     10.54    11.31    12.14    12.98    13.85    14.74    15.68    
 16.66    17.69    18.73    19.81    20.93    22.07    23.22    24.39    25.61    26.86    
 28.16    29.51    30.96    32.45    34.03    35.69    37.47    39.37    41.31    43.32    
 45.36    47.45    49.67    51.98    54.33    56.70    59.07    61.53    64.04    66.61    
 69.21    71.96    74.84    77.81    80.91    84.05    87.28    90.76    94.22    97.63    
 101.21   104.89   108.61   112.27   115.84   119.13   122.14   124.91   127.36   129.50   
 131.37   132.91   134.15   134.88   135.11   134.72   133.68   131.98   129.66   126.79   
 123.34   119.50   115.44   111.08   106.71   102.11   97.56    93.05    88.51    83.71    
 77.90    
70119.99 67024.22 64534.95 63059.08 61882.58 54874.61 48562.30 41492.34 34449.80 27985.26 
 21520.73 15063.05 9447.79  5123.88  833.67   295.44   248.23   200.75   125.40   70.61    
 38.83    25.06    17.56    13.45    11.48    10.09    9.17     8.51     8.03     7.69     
 7.37     7.06     6.89     6.73     6.29     5.93     5.87     5.86     5.78     5.59     
 5.47     5.37     5.28     5.09     4.92     4.98     5.03     5.02     4.97     4.90     
 4.82     4.74     4.63     4.52     4.41     4.32     4.25     4.15     4.07     3.98     
 3.87     3.76     3.67     3.59     3.52     3.47     3.38     3.30     3.25     3.21     
 3.17     3.08     3.02     2.97     2.96     2.95     2.95     2.96     2.96     2.98     
 3.01     3.04     3.08     3.14     3.23     3.36     3.49     3.66     3.85     4.07     
 4.32     4.58     4.87     5.19     5.54     5.91     6.32     6.78     7.28     7.79     
 8.33     8.93     9.58     10.28    11.05    11.84    12.66    13.54    14.46    15.43    
 16.42    17.46    18.54    19.65    20.77    21.92    23.12    24.33    25.56    26.82    
 28.18    29.64    31.16    32.71    34.29    35.96    37.75    39.59    41.50    43.43    
 45.44    47.46    49.55    51.64    53.74    55.86    58.09    60.33    62.57    64.91    
 67.40    69.95    72.61    75.43    78.33    81.35    84.34    87.52    90.72    94.08    
 97.62    101.10   104.58   108.11   111.41   114.52   117.39   119.87   122.18   124.09   
 125.79   127.24   128.37   129.15   129.42   129.09   128.16   126.62   124.58   122.00   
 119.00   115.81   112.42   108.95   105.45   101.88   98.20    95.40    91.13    86.29    
 77.90    
70119.99 67344.08 64748.71 63200.48 62271.89 60165.28 53055.20 47906.25 41551.94 35342.35 
 28055.50 23585.19 16414.80 12110.69 7524.00  2933.94  2036.96  1177.56  318.15   243.04   
 206.51   159.41   122.85   102.90   83.13    70.88    60.84    49.85    49.27    45.67    
 37.84    32.40    29.30    27.94    24.63    21.81    18.29    15.51    13.22    11.78    
 10.70    9.79     9.07     8.38     7.85     7.40     7.07     6.79     6.52     6.25     
 6.02     5.82     5.61     5.39     5.20     5.02     4.86     4.74     4.60     4.47     
 4.32     4.21     4.10     4.00     3.89     3.79     3.70     3.63     3.55     3.48     
 3.42     3.35     3.30     3.25     3.20     3.16     3.12     3.09     3.07     3.06     
 3.06     3.06     3.07     3.15     3.26     3.41     3.59     3.80     4.03     4.29     
 4.58     4.90     5.25     5.63     6.06     6.52     7.01     7.56     8.18     8.85     
 9.57     10.33    11.13    11.98    12.88    13.80    14.76    15.75    16.80    17.89    
 19.00    20.15    21.34    22.54    23.77    25.06    26.37    27.72    29.15    30.60    
 32.05    33.58    35.20    36.81    38.44    40.07    41.76    43.51    45.25    47.03    
 48.83    50.63    52.53    54.51    56.54    58.62    60.80    63.06    65.44    67.92    
 70.45    73.12    75.87    78.72    81.59    84.55    87.57    90.65    93.78    96.93    
 100.10   103.15   106.04   108.78   111.43   113.81   115.94   117.84   119.53   121.16   
 122.56   123.64   124.33   124.63   124.51   123.97   123.00   121.62   119.94   117.97   
 115.74   113.39   110.92   109.72   107.23   104.26   101.18   97.94    94.45    90.66    
 77.90    
70119.99 67857.87 65724.63 63809.22 62582.35 61758.27 61194.41 57337.70 50991.81 46606.63 
 40922.03 36511.78 30197.13 25417.60 20638.06 15874.62 12842.12 8553.50  5982.53  3411.55  
 857.60   518.38   408.82   300.08   244.59   189.31   158.34   127.79   104.96   87.28    
 73.71    64.45    54.71    46.58    40.62    35.67    31.90    28.67    25.87    23.46    
 21.33    19.35    17.15    14.84    13.23    12.50    12.06    11.64    11.17    10.58    
 10.00    9.34     8.60     7.89     7.39     7.08     6.92     6.80     6.65     6.45     
 6.24     6.03     5.81     5.59     5.37     5.18     4.99     4.82     4.64     4.49     
 4.33     4.17     4.02     3.90     3.77     3.65     3.53     3.45     3.35     3.29     
 3.24     3.25     3.25     3.31     3.41     3.58     3.82     4.09     4.41     4.76     
 5.16     5.62     6.10     6.62     7.18     7.78     8.42     9.11     9.83     10.57    
 11.35    12.16    13.03    13.99    14.97    15.95    16.95    18.00    19.12    20.26    
 21.43    22.63    23.91    25.21    26.55    27.94    29.36    30.79    32.27    33.77    
 35.34    36.97    38.67    40.34    42.02    43.78    45.62    47.54    49.46    51.45    
 53.48    55.57    57.73    59.91    62.13    64.40    66.77    69.16    71.56    74.04    
 76.64    79.22    81.84    84.44    87.06    89.70    92.27    94.81    97.21    99.55    
 101.85   103.98   105.98   107.93   109.69   111.39   112.92   114.24   115.39   116.29   
 117.02   117.48   117.71   117.72   117.45   116.90   116.16   115.22   114.13   112.89   
 112.28   111.32   110.20   108.63   106.94   105.04   101.75   99.65    98.11    95.32    
 77.90    
70119.99 68522.58 67063.41 65670.61 64286.12 63206.25 61943.74 60720.78 59761.22 58900.14 
 55806.48 50932.90 46927.87 43813.94 39748.12 35981.18 32661.66 27894.51 23767.78 21656.98 
 18202.72 14427.15 12169.19 9831.65  7493.02  5154.39  2459.52  1101.17  787.62   487.26   
 362.29   265.34   194.41   152.25   126.89   106.64   86.44    75.08    68.75    58.07    
 50.57    44.96    40.49    35.12    32.15    29.11    26.99    24.98    22.28    20.30    
 18.51    16.91    15.23    13.23    11.77    11.10    10.63    10.23    9.83     9.44     
 8.99     8.59     8.24     7.93     7.63     7.34     7.08     6.82     6.57     6.36     
 6.15     5.94     5.75     5.55     5.36     5.17     4.97     4.79     4.61     4.46     
 4.32     4.21     4.14     4.11     4.13     4.30     4.58     4.94     5.31     5.73     
 6.18     6.66     7.19     7.77     8.40     9.07     9.79     10.57    11.38    12.23    
 13.15    14.10    15.11    16.16    17.26    18.47    19.71    20.97    22.26    23.59    
 25.00    26.47    27.99    29.51    31.10    32.77    34.50    36.24    38.00    39.85    
 41.77    43.70    45.65    47.63    49.71    51.82    53.95    56.11    58.34    60.57    
 62.78    65.01    67.25    69.52    71.79    74.05    76.31    78.58    80.84    83.05    
 85.23    87.39    89.52    91.62    93.65    95.68    97.62    99.42    101.11   102.71   
 104.24   105.61   106.84   107.97   109.00   109.89   110.65   111.25   111.74   112.10   
 112.39   112.48   112.52   112.49   112.38   112.22   111.96   111.65   111.28   110.70   
 110.11   109.48   109.07   108.56   107.66   106.41   105.45   104.39   103.01   101.51   
 77.90    
70119.99 69260.09 68526.04 67864.04 67201.03 66425.58 65385.58 64039.85 62814.87 61586.08 
 60297.45 59122.89 57972.01 56929.95 56180.03 55013.18 53872.94 52738.88 51455.58 49641.47 
 47113.65 44284.67 41312.03 38882.84 36980.17 34534.07 31979.12 29140.76 26804.82 24288.07 
 21771.32 19253.49 16600.08 14680.93 12983.80 11149.43 9371.92  7849.64  6448.04  5372.89  
 4315.42  3454.22  2690.80  1929.01  1375.42  931.87   659.13   467.93   343.48   283.91   
 224.35   165.07   135.44   103.75   84.22    72.58    63.23    50.85    43.81    38.33    
 33.55    30.10    26.98    24.80    22.62    20.44    18.27    16.08    14.13    13.04    
 12.56    11.97    11.07    10.18    9.45     8.91     8.36     7.75     7.31     6.83     
 6.23     5.80     5.35     4.93     4.53     4.21     4.24     4.50     4.82     5.17     
 5.56     6.01     6.49     7.00     7.55     8.15     8.78     9.47     10.21    11.00    
 11.81    12.70    13.67    14.69    15.75    16.85    17.98    19.20    20.49    21.83    
 23.22    24.68    26.19    27.77    29.36    31.02    32.73    34.46    36.21    38.06    
 39.96    41.95    43.98    45.96    48.00    50.06    52.18    54.33    56.49    58.67    
 60.84    63.00    65.17    67.33    69.45    71.57    73.70    75.79    77.82    79.85    
 81.89    83.87    85.79    87.62    89.39    91.08    92.74    94.28    95.81    97.36    
 98.77    100.09   101.29   102.40   103.51   104.66   105.61   106.49   107.32   108.07   
 108.78   109.42   109.99   110.52   110.96   111.40   111.76   113.33   113.59   113.77   
 113.85   113.78   113.61   113.33   112.65   112.02   111.40   110.62   109.62   108.60   
 77.90    
70119.99 70169.22 70275.79 70494.22 70695.26 70776.04 70508.78 69919.79 69494.92 68979.83 
 68380.23 67744.97 67145.57 66529.43 65851.13 65331.58 64703.19 64006.36 63274.47 62615.32 
 61858.34 61112.37 60272.79 59296.68 58288.12 57245.80 56393.40 55358.62 54131.05 52839.14 
 51518.87 50202.73 48856.70 47338.51 45828.01 44288.06 42624.68 41016.71 39356.18 37652.15 
 35988.02 34316.50 32652.71 31012.20 29300.97 27717.15 26067.37 24603.39 23139.95 21724.14 
 20494.69 19118.66 17758.41 16427.52 15158.76 13922.67 12817.28 11780.75 10766.57 9721.03  
 8803.36  7961.83  7145.30  6448.21  5803.45  5190.77  4628.92  4110.13  3630.32  3188.01  
 2793.69  2400.18  2073.34  1778.26  1496.73  1267.42  1045.01  864.78   707.43   575.96   
 464.35   373.62   308.17   242.72   177.54   133.35   94.05    69.19    45.66    25.22    
 11.19    5.71     4.86     4.44     4.20     4.00     2.99     2.92     2.95     3.01     
 3.08     3.16     3.25     3.36     3.48     3.62     3.78     3.96     4.16     4.37     
 4.60     4.84     5.11     5.40     5.70     6.02     6.35     6.71     7.09     7.49     
 7.90     8.33     8.76     9.23     9.73     10.25    10.77    11.31    11.84    12.40    
 12.98    13.57    14.16    14.78    15.43    16.07    16.76    17.48    18.20    18.94    
 19.72    20.50    21.31    22.16    23.02    23.96    24.89    25.91    27.00    28.16    
 29.38    30.63    31.92    33.32    34.75    36.25    37.94    39.81    41.82    43.97    
 46.19    48.53    50.96    53.49    56.04    58.69    61.37    64.93    68.43    71.23    
 73.96    76.66    79.38    81.91    84.35    86.67    88.79    90.63    92.18    93.59    
 77.90    
70119.99 71018.19 71992.71 73040.41 74064.50 75093.65 75811.81 76305.58 76728.77 77143.27 
 77513.41 77963.71 78346.21 78683.81 78924.30 79002.72 78979.16 78862.24 78740.39 78453.47 
 78096.55 77589.99 76876.68 75923.86 74823.97 73481.01 71926.46 70487.15 69068.94 67361.21 
 65859.95 64243.93 62574.48 60803.87 59000.14 57389.57 55619.36 53791.43 51976.05 50248.37 
 48545.71 46807.06 44991.58 43328.40 41783.41 40130.67 38412.53 36746.25 35056.20 33575.67 
 32088.66 30452.72 28988.35 27565.90 26172.01 24693.80 23271.24 21970.05 20778.69 19628.52 
 18341.58 17129.49 16051.45 15031.08 13970.99 12942.74 11983.25 11111.13 10239.77 9319.99  
 8446.81  7657.80  6898.49  6200.94  5537.87  4995.91  4474.68  3987.11  3521.47  3060.93  
 2693.17  2364.58  2064.09  1790.32  1573.51  1391.53  1199.27  1063.62  928.50   826.21   
 736.04   659.17   588.04   527.07   475.38   431.68   393.40   359.61   330.30   304.76   
 281.42   262.44   245.49   230.57   216.59   203.64   192.57   183.33   175.07   167.39   
 160.64   154.56   148.92   143.21   137.40   131.76   125.82   119.87   114.17   109.23   
 104.61   100.45   96.10    92.00    87.83    83.61    79.23    74.11    68.33    60.83    
 50.10    40.66    32.71    26.18    22.21    18.75    15.00    12.40    11.84    12.36    
 13.00    13.65    14.30    14.97    15.64    16.32    17.00    17.67    18.34    19.04    
 19.76    20.47    21.20    22.00    22.83    23.73    24.70    25.82    27.09    28.54    
 30.10    31.86    33.92    36.18    38.63    41.27    43.94    46.77    50.24    54.42    
 57.67    60.99    64.31    67.60    70.87    74.18    77.27    80.22    82.95    85.62    
 77.90    
70119.99 71834.04 73538.08 75424.31 77361.06 79140.35 80904.33 82728.50 84216.36 85521.45 
 86350.16 87186.17 87212.28 86295.26 85137.43 84087.38 82943.70 81726.64 80445.13 79165.89 
 77769.51 76319.18 74736.94 73275.25 71765.29 70268.26 68842.65 67315.97 65767.45 64084.09 
 62257.13 60486.06 58737.67 56844.75 55027.94 53158.11 51240.94 49418.00 47715.27 45948.79 
 44243.08 42563.05 40980.69 39515.95 38096.58 36767.31 35552.34 34450.40 33351.13 32133.99 
 30844.72 29592.04 28363.84 27159.44 25991.88 24797.33 23602.03 22340.39 21143.41 20019.33 
 18902.85 17843.21 16950.09 16071.24 15188.98 14298.77 13386.82 12471.41 11539.04 10627.16 
 9754.66  8926.61  8088.51  7297.30  6497.38  5718.57  4882.18  4226.58  3667.90  3175.05  
 2713.05  2252.37  1906.40  1659.65  1426.85  1255.01  1102.68  981.37   876.23   787.64   
 716.47   654.13   590.33   533.83   487.59   451.67   422.12   398.69   378.14   360.21   
 344.43   330.97   317.72   306.42   296.56   288.76   280.48   272.82   265.76   259.99   
 254.96   249.96   244.07   238.20   233.57   229.16   224.75   220.82   216.72   212.58   
 208.63   204.86   201.26   197.64   194.02   190.76   186.99   183.37   179.82   175.78   
 171.18   165.81   159.71   153.10   146.64   140.07   132.85   125.47   118.75   112.10   
 104.59   97.10    90.43    82.93    76.88    70.45    66.55    63.32    50.83    29.24    
 18.39    14.61    13.69    14.40    15.20    16.01    16.86    17.74    18.69    19.80    
 21.00    22.30    23.72    25.34    27.16    29.20    31.45    34.01    36.74    39.74    
 42.98    47.92    51.52    55.28    59.24    63.30    67.34    71.36    75.46    79.55    
 77.90    
70119.99 72543.21 74983.85 77521.50 80080.08 82821.15 85462.24 87445.58 89019.58 88868.48 
 87790.42 86776.88 85622.76 84544.13 83312.75 82068.05 80621.27 79229.47 77894.63 76125.11 
 73904.06 71537.77 68996.81 66652.00 64292.72 62163.37 60205.38 58447.30 56693.99 55279.11 
 54173.79 53216.48 52232.29 51223.65 50206.73 49250.27 48221.66 47148.06 45823.37 44464.99 
 43045.87 41634.22 40299.22 38928.65 37473.07 35972.38 34390.62 32836.43 31427.79 30113.14 
 28810.82 27492.96 26372.38 25362.51 24321.41 23191.30 22088.65 20925.72 19814.74 18696.12 
 17553.21 16441.42 15334.89 14264.67 13106.14 11999.17 10919.10 9839.26  8732.22  7725.16  
 6815.90  6090.74  5480.00  4905.60  4334.41  3831.88  3324.69  2875.49  2523.29  2225.09  
 1953.52  1685.44  1489.41  1311.20  1178.11  1045.47  912.83   815.14   732.99   666.66   
 613.31   562.50   510.69   467.51   434.40   401.29   378.19   361.30   347.73   336.21   
 325.11   315.46   307.81   301.05   295.01   289.15   284.44   279.17   274.37   269.48   
 264.99   260.73   257.22   252.83   248.39   244.35   240.61   236.98   233.08   229.43   
 226.19   222.60   218.56   213.68   208.40   203.12   197.84   192.77   188.08   183.33   
 179.10   175.54   172.70   170.12   167.02   163.86   161.24   158.97   156.49   154.05   
 151.22   148.29   145.75   143.13   140.16   136.88   130.60   124.70   118.80   113.15   
 107.84   99.34    89.02    84.81    82.91    79.37    66.33    34.10    22.32    19.73    
 17.05    16.66    17.90    19.38    21.02    22.72    24.54    26.51    28.74    31.29    
 34.17    37.37    40.83    44.46    48.32    53.85    58.27    62.97    67.85    72.99    
 77.90    
70119.99 73079.44 76043.02 79018.91 82352.80 85632.74 88115.14 89272.50 88502.77 87592.63 
 86577.84 85581.76 84453.61 83410.85 82079.27 80511.14 78363.59 75606.19 72704.50 69857.10 
 67235.04 64911.53 62968.99 61201.32 59927.37 58821.83 57642.04 56317.18 54988.71 53692.63 
 52411.46 51063.92 49487.23 47608.31 45753.85 43923.30 42067.69 40136.52 38291.27 36555.55 
 34886.41 33388.81 32134.06 30952.44 29818.69 28637.10 27504.25 26405.27 25446.35 24487.43 
 23528.19 22541.87 21562.50 20550.40 19461.67 18388.58 17362.68 16351.97 15346.23 14206.22 
 13182.38 12205.42 11122.79 10047.27 9177.13  8411.29  7675.28  7051.97  6454.23  5912.52  
 5375.22  4866.48  4422.02  3892.70  3500.43  3164.51  2864.14  2563.77  2263.97  2016.45  
 1806.66  1596.42  1422.68  1267.35  1132.77  1005.98  900.90   812.20   734.13   674.25   
 622.49   573.47   525.47   481.24   444.31   414.80   388.13   369.79   354.53   343.43   
 334.84   326.49   319.35   313.52   308.10   303.30   298.68   294.68   291.29   287.03   
 283.08   279.92   276.40   272.89   269.33   265.53   260.64   255.78   250.39   244.18   
 237.97   232.98   228.87   224.87   220.73   216.57   212.78   209.18   205.03   200.39   
 195.40   191.37   186.91   182.92   179.21   175.40   171.85   168.48   165.31   161.55   
 157.25   153.14   149.06   143.49   141.76   141.01   140.92   138.93   139.45   137.20   
 133.52   128.70   121.02   117.37   113.51   108.96   99.21    93.58    89.95    87.50    
 65.85    26.52    20.33    18.52    18.58    20.22    22.13    24.20    26.31    28.49    
 30.84    33.47    36.44    39.67    43.34    47.40    51.95    57.17    62.85    69.09    
 77.90    
70119.99 73361.52 76720.88 80173.34 83770.83 86691.87 88048.14 87188.84 86332.38 85264.02 
 84329.86 83264.75 82094.36 80646.67 78459.41 75536.84 72312.80 69437.71 66870.13 64685.59 
 62564.66 61072.77 59894.80 58723.51 57452.11 56079.71 54722.54 53341.21 51763.98 49872.82 
 47698.56 45605.68 43577.62 41634.22 39723.59 37925.39 36112.09 34426.92 32851.26 31224.14 
 29720.49 28414.08 27365.64 26535.73 25787.85 25056.69 24293.62 23502.24 22666.55 21810.47 
 20892.59 19903.78 18894.27 17964.60 17031.67 16046.66 14957.08 14018.80 13025.71 11779.70 
 10867.91 9958.68  9200.14  8471.07  7842.06  7228.18  6673.68  6163.96  5641.22  5175.63  
 4665.02  4237.74  3867.39  3527.66  3207.30  2925.65  2628.54  2346.71  2118.19  1893.79  
 1712.46  1538.40  1385.11  1246.58  1125.82  1005.25  905.69   818.03   746.12   688.69   
 636.81   585.54   533.96   489.56   451.25   420.95   391.50   370.48   353.82   341.65   
 331.89   323.07   316.09   309.47   303.56   297.91   293.07   288.40   284.12   280.19   
 276.36   272.30   268.42   264.02   260.14   256.04   252.03   248.20   244.58   240.75   
 236.74   232.51   228.89   225.28   221.79   218.09   214.21   210.33   206.64   202.89   
 199.19   195.40   191.65   187.77   183.94   179.27   169.31   165.47   163.34   161.66   
 159.51   157.05   154.19   151.15   147.84   144.93   141.98   138.94   136.24   133.64   
 130.91   127.84   124.77   121.33   114.60   111.33   109.77   108.18   100.41   89.37    
 86.27    82.74    42.69    21.38    21.36    22.35    24.49    26.97    29.41    30.94    
 32.83    35.25    37.83    40.69    44.05    48.05    52.57    57.94    63.45    69.24    
 77.90    
70119.99 73481.87 76831.31 80480.21 84198.17 87021.36 87596.42 86517.78 85473.34 84386.88 
 83362.83 82212.12 80769.92 78895.86 76164.28 72951.37 69759.63 66999.05 64685.26 62486.45 
 60844.70 59685.68 58581.00 57343.58 55990.06 54579.88 53089.48 51543.08 49642.90 47445.30 
 45313.72 43242.14 41366.20 39525.69 37645.97 35822.49 34043.37 32312.43 30620.84 29223.00 
 28098.35 27192.62 26460.18 25763.38 25045.62 24327.86 23608.98 22790.45 21925.56 21029.73 
 20077.51 19130.24 18159.95 17186.30 16136.46 15011.21 14046.38 13016.97 11846.61 10811.56 
 10027.30 9298.75  8543.14  7913.35  7318.46  6786.48  6282.70  5770.88  5300.09  4815.39  
 4350.66  3972.48  3645.25  3329.75  3048.30  2750.64  2453.63  2220.35  2006.09  1802.90  
 1632.49  1471.11  1324.46  1188.74  1059.07  952.05   854.52   773.14   705.63   649.50   
 596.27   546.24   495.01   451.56   413.29   383.18   356.03   336.35   320.97   310.14   
 301.36   294.08   287.80   282.09   276.78   272.13   268.18   264.19   260.76   257.52   
 254.53   251.32   248.25   245.56   242.27   238.97   235.68   233.02   230.44   227.74   
 224.56   221.01   217.76   214.53   211.34   208.06   204.65   201.34   198.12   194.91   
 191.59   188.27   184.89   181.30   177.97   174.58   170.23   160.23   156.99   154.49   
 152.55   150.95   149.34   147.20   144.59   142.01   139.51   137.14   134.77   132.28   
 130.01   127.37   125.22   123.28   121.20   119.58   118.02   115.50   111.46   96.58    
 91.36    82.80    62.66    25.90    24.12    24.83    26.43    29.13    32.02    34.92    
 37.62    40.25    42.82    45.41    48.27    51.67    55.87    60.80    66.73    72.60    
 77.90    
70119.99 73401.79 76653.62 80247.51 83446.57 85911.61 86029.87 84911.41 83910.94 82943.10 
 81999.14 80890.29 79520.44 77810.16 75211.90 72106.89 68963.34 66172.21 63796.95 61645.66 
 59799.01 58556.45 57460.79 56311.30 54992.23 53726.85 52446.17 51051.09 49549.29 47496.63 
 45458.26 43518.30 41618.55 39750.60 37989.09 36232.41 34542.64 32939.98 31361.97 29826.95 
 28504.41 27341.07 26363.88 25549.53 24819.18 24093.49 23320.64 22511.99 21683.39 20811.35 
 19878.53 18887.76 17935.71 17015.45 16115.14 15101.03 14070.18 13141.43 12123.07 11086.02 
 10048.82 9325.71  8574.69  7906.19  7312.16  6747.11  6245.67  5753.95  5250.76  4797.31  
 4301.60  3916.84  3577.76  3250.03  2957.05  2681.92  2389.43  2159.34  1949.73  1744.67  
 1579.53  1422.29  1276.68  1158.31  1040.14  921.97   829.92   751.42   690.20   636.89   
 587.56   535.01   485.64   445.02   413.70   383.87   360.78   343.97   331.98   321.96   
 313.55   306.19   299.65   294.31   288.73   284.22   279.48   275.87   272.75   269.77   
 267.12   264.22   261.20   258.72   255.66   252.54   249.38   246.45   243.25   239.57   
 235.76   232.73   229.40   226.15   222.82   219.57   216.24   212.86   209.33   205.69   
 202.14   198.42   194.53   190.63   186.87   179.80   171.50   167.87   165.05   162.36   
 159.69   157.18   154.58   151.94   149.47   146.66   143.81   140.91   138.18   134.94   
 131.99   129.40   125.23   121.05   116.61   114.88   113.69   112.41   102.86   98.01    
 92.99    66.71    30.99    28.30    28.83    30.38    32.96    35.96    38.97    41.82    
 44.49    47.13    49.68    52.22    54.89    57.96    61.61    65.95    70.69    75.81    
 77.90    
70119.99 73000.67 75843.20 79094.67 82322.06 84829.30 85763.78 85160.26 84211.95 83163.75 
 82134.38 81042.45 79931.84 78545.79 76926.51 74686.49 72007.85 69129.81 66189.92 63591.78 
 61379.34 59418.37 57634.08 56316.86 55280.28 54242.96 53142.80 51999.37 50820.99 49649.75 
 48425.87 47055.53 45426.24 43658.30 42050.34 40453.01 38761.34 37000.38 35311.42 33779.13 
 32322.79 31022.96 29841.79 28781.27 27694.04 26662.35 25716.42 24771.59 23826.75 22881.16 
 21873.50 20900.59 19897.66 18892.01 17854.50 16831.58 15842.25 14886.89 13858.98 12776.87 
 11855.35 10887.83 9777.33  8851.32  8157.39  7444.50  6839.18  6273.15  5756.62  5249.15  
 4740.50  4299.01  3826.44  3429.26  3095.00  2806.05  2517.09  2228.42  1966.80  1765.48  
 1568.80  1406.84  1255.75  1125.96  1002.49  893.13   800.25   724.39   663.36   611.27   
 564.01   513.90   468.42   429.42   399.26   372.20   352.13   337.38   325.76   315.42   
 307.17   299.95   293.42   287.49   282.59   278.03   273.70   269.92   266.56   262.96   
 259.69   256.85   253.80   250.78   247.16   243.19   238.07   232.94   227.82   222.72   
 218.09   214.40   210.79   207.25   203.91   200.54   197.81   194.36   190.67   186.63   
 182.91   178.86   175.13   171.71   168.43   165.19   162.13   159.43   156.96   153.92   
 149.73   145.35   139.33   137.53   136.22   135.84   135.97   137.36   137.41   134.99   
 131.38   124.88   121.30   118.61   115.28   113.35   107.44   104.07   99.25    63.72    
 36.83    34.34    34.53    35.03    37.25    40.26    43.31    46.27    49.07    51.82    
 54.43    57.00    59.45    61.96    64.72    67.72    71.02    74.54    78.37    82.29    
 77.90    
70119.99 72475.61 74858.94 77539.09 80260.11 82478.22 84222.00 84476.96 83675.37 82687.07 
 81677.92 80491.55 79303.65 78004.08 76676.65 75244.97 73689.59 71959.93 70001.70 67695.17 
 65227.67 62854.89 60494.52 58365.23 56380.35 54535.30 52864.70 51415.17 50251.60 49294.65 
 48405.04 47662.22 46859.21 46086.42 45233.06 44417.52 43513.72 42328.00 41062.64 39808.63 
 38597.03 37381.99 36124.61 34816.83 33489.35 32088.56 30714.11 29397.64 28162.53 27070.60 
 25959.67 24884.00 23908.65 22957.34 21925.46 20838.98 19771.25 18696.00 17655.34 16622.66 
 15555.37 14490.72 13450.10 12436.64 11488.81 10414.50 9339.03  8375.45  7477.63  6623.30  
 5865.36  5271.82  4758.67  4211.21  3682.50  3230.00  2762.22  2422.62  2135.67  1884.69  
 1648.05  1458.38  1287.05  1161.30  1035.89  910.48   815.28   730.66   665.40   610.99   
 559.03   503.84   457.21   419.73   388.87   363.40   345.78   330.59   318.15   306.24   
 295.84   287.10   279.80   273.65   267.59   261.95   256.96   252.63   247.97   243.82   
 239.50   235.85   231.87   227.34   223.73   220.30   216.91   213.78   210.56   207.21   
 204.24   201.32   197.35   192.31   187.73   182.95   178.08   173.29   168.51   164.10   
 160.03   156.97   154.59   152.34   150.18   148.02   145.82   143.66   141.71   139.72   
 137.60   135.44   133.24   131.50   129.68   124.45   119.19   116.14   111.14   104.93   
 99.42    93.52    93.31    92.97    74.45    46.47    41.84    39.96    39.00    38.30    
 39.91    42.60    45.46    48.19    50.82    53.39    55.89    58.35    60.74    63.03    
 65.25    67.54    69.87    72.32    74.91    77.71    80.53    83.43    86.27    89.21    
 77.90    
70119.99 71800.99 73454.13 75336.98 77304.15 79304.80 80927.15 82149.01 83016.86 83006.57 
 82378.98 81131.03 80015.01 78763.27 77643.50 76401.33 75120.06 73756.55 72216.33 70854.87 
 69484.70 67999.58 66472.24 64922.58 63420.69 61762.18 60076.90 58385.30 56800.03 55187.93 
 53560.68 51882.48 50136.56 48482.56 46858.93 45224.40 43635.84 42068.69 40699.25 39292.85 
 37978.67 36728.67 35465.11 34328.32 33268.42 32262.28 31286.77 30321.20 29225.52 28088.24 
 26977.87 25886.64 24803.12 23726.69 22649.96 21544.78 20402.54 19302.19 18282.50 17284.16 
 16296.89 15457.44 14576.82 13770.69 12963.20 12183.89 11350.04 10517.42 9726.94  8935.24  
 8172.74  7460.60  6695.27  6003.30  5309.62  4602.95  3913.12  3389.47  2958.24  2559.83  
 2162.26  1838.37  1586.12  1368.58  1205.41  1059.79  941.55   844.94   762.32   696.52   
 636.62   576.33   525.22   480.80   442.26   411.75   384.74   362.09   342.36   326.05   
 312.42   299.10   287.45   277.11   268.20   259.87   252.18   245.50   239.44   233.61   
 227.78   221.95   216.80   212.03   207.83   203.80   199.60   195.90   191.89   188.25   
 184.76   181.53   178.21   175.15   172.00   168.80   165.17   161.15   155.46   149.15   
 142.49   136.30   130.05   124.02   118.76   113.81   109.08   104.86   100.52   95.85    
 91.19    86.16    79.83    76.42    72.95    63.27    40.09    30.02    29.55    31.38    
 33.63    35.89    38.20    40.54    42.87    45.21    47.56    49.87    52.19    54.41    
 56.62    58.75    60.84    62.91    64.94    66.94    68.90    70.95    72.96    74.98    
 76.97    79.07    81.26    83.55    85.85    88.16    90.49    92.70    94.85    96.99    
 77.90    
70119.99 70954.40 71891.07 72870.34 73834.75 74819.13 75696.47 76322.61 76703.70 77177.33 
 77412.87 77665.26 77678.74 77686.41 77534.61 77081.54 76468.32 75628.72 74824.79 73744.47 
 72506.11 71190.46 69805.84 68553.44 67271.80 65959.55 64688.82 63372.62 61897.16 60329.17 
 58828.52 57248.90 55649.58 54091.81 52481.29 50832.37 49107.21 47434.60 45960.12 44471.75 
 42952.92 41384.51 39955.90 38418.63 36937.26 35479.16 34009.86 32502.51 31093.58 29636.05 
 28223.77 26785.26 25452.60 24094.43 22830.81 21583.22 20419.24 19282.53 18233.35 17158.31 
 16075.45 15048.52 14083.63 13138.29 12193.13 11289.69 10478.15 9667.44  8824.76  8002.21  
 7237.56  6573.45  5915.37  5278.59  4712.32  4246.64  3787.30  3366.45  2964.03  2596.37  
 2296.35  2022.66  1779.20  1568.51  1395.13  1230.95  1103.71  976.82   849.93   759.36   
 684.96   610.62   542.37   486.19   437.40   395.78   360.38   330.10   304.41   281.96   
 261.43   242.91   226.65   211.19   198.18   185.86   175.64   166.60   158.99   151.97   
 145.32   138.68   132.62   126.69   120.97   115.25   110.88   106.49   102.03   97.61    
 93.84    90.24    85.98    81.94    77.76    72.93    66.75    58.18    49.11    40.75    
 34.44    29.21    24.89    23.36    24.12    25.67    27.34    28.97    30.65    32.36    
 34.10    35.90    37.75    39.58    41.40    43.30    45.17    47.03    48.89    50.78    
 52.68    54.54    56.37    58.22    60.09    61.94    63.74    65.55    67.41    69.25    
 71.00    72.80    74.64    76.45    78.29    80.11    82.00    83.93    85.71    87.54    
 89.37    91.28    93.15    94.99    96.81    98.62    100.40   102.16   103.79   105.43   
 77.90    
70119.99 70063.40 70194.96 70344.60 70470.36 70199.81 69648.63 69165.93 68604.13 68041.36 
 67206.44 66464.42 65707.47 64950.37 64357.50 63558.01 62830.47 62101.72 61368.96 60496.13 
 59733.63 58772.37 57608.63 56602.73 55318.31 54283.17 53162.59 51912.23 50633.17 49265.80 
 47901.32 46444.87 44875.28 43240.32 41620.64 40049.19 38378.13 36613.85 34949.29 33297.26 
 31533.41 29808.15 28171.39 26583.70 24980.58 23449.33 22059.05 20686.35 19313.82 17977.36 
 16676.87 15389.21 14161.69 13018.92 11913.18 10920.43 9928.98  8959.27  8032.84  7150.33  
 6388.52  5737.00  5152.51  4525.07  3954.27  3424.72  2976.38  2568.77  2179.46  1829.74  
 1532.84  1255.59  1036.49  817.99   645.56   501.16   380.42   278.17   197.63   147.00   
 113.83   80.85    52.61    32.35    21.20    12.39    8.06     7.76     7.48     7.48     
 7.50     7.59     7.83     8.10     8.38     7.75     7.89     8.32     8.77     9.27     
 9.83     10.47    11.16    11.89    12.68    13.51    14.35    15.27    16.23    17.24    
 18.25    19.38    20.54    21.74    22.99    24.29    25.64    27.02    28.47    29.98    
 31.50    33.08    34.73    36.43    38.15    39.88    41.69    43.55    45.42    47.29    
 49.15    51.01    52.88    54.79    56.70    58.62    60.52    62.36    64.18    65.99    
 67.75    69.52    71.29    72.98    74.62    76.23    77.78    79.29    80.72    82.13    
 83.51    84.80    86.01    87.14    88.23    89.24    90.19    91.07    91.95    92.74    
 93.48    94.20    94.88    95.52    96.14    96.72    97.32    97.91    98.34    98.70    
 98.97    99.16    99.26    99.16    98.97    98.58    98.03    97.34    96.50    95.65    
 77.90    
70119.99 69191.99 68551.56 68085.10 67704.32 67009.02 66259.42 65306.16 64505.22 63344.06 
 62294.30 61050.95 58815.27 56456.56 53389.02 50333.14 47673.83 45652.22 43394.19 40832.09 
 38098.14 35431.36 33098.07 30627.95 27702.84 24812.00 21926.80 19663.79 18133.66 16180.70 
 13838.25 11631.93 9888.46  8729.29  7356.35  6022.95  4873.97  4118.09  3084.43  2054.95  
 1461.80  1065.67  771.15   556.86   409.66   326.33   265.09   204.04   165.88   138.87   
 115.74   95.99    85.15    74.56    62.78    53.70    46.29    40.60    35.24    30.79    
 28.00    26.03    24.16    22.04    20.02    17.45    13.90    11.65    10.99    10.61    
 10.22    9.74     9.17     8.56     8.09     7.76     7.39     7.01     6.59     6.21     
 5.85     5.49     5.16     4.85     4.65     4.71     5.01     5.37     5.75     6.22     
 6.72     7.26     7.82     8.43     9.09     9.79     10.53    11.33    12.17    13.04    
 13.95    14.95    15.97    17.06    18.19    19.35    20.54    21.80    23.12    24.50    
 25.89    27.38    28.93    30.52    32.13    33.82    35.52    37.27    39.03    40.86    
 42.75    44.75    46.76    48.76    50.75    52.79    54.85    56.97    59.10    61.21    
 63.31    65.42    67.52    69.59    71.64    73.68    75.73    77.75    79.69    81.55    
 83.40    85.20    86.94    88.60    90.22    91.82    93.32    94.80    96.16    97.46    
 98.71    99.81    100.88   101.92   102.81   103.57   104.29   104.87   105.37   105.79   
 106.08   106.31   106.45   106.60   106.71   106.70   106.68   106.61   106.26   105.78   
 105.15   104.39   103.44   102.28   100.92   99.25    97.43    95.46    93.28    90.97    
 77.90    
70119.99 68506.72 67439.64 66750.03 66234.01 65898.45 64262.00 59920.14 55129.56 51507.62 
 47488.18 42935.30 39341.06 34958.22 29678.22 26190.26 23496.04 19033.21 15208.86 12795.92 
 10172.47 7546.29  5192.63  2223.45  1095.94  774.91   462.33   346.63   264.44   204.47   
 157.46   127.49   109.57   91.78    84.26    75.15    65.91    57.78    51.45    46.25    
 41.28    37.42    34.37    31.63    29.26    27.09    24.89    22.41    20.27    18.11    
 16.11    13.13    11.23    10.03    9.51     9.16     8.88     8.61     8.32     8.06     
 7.78     7.55     7.30     7.08     6.87     6.66     6.46     6.27     6.08     5.90     
 5.72     5.57     5.40     5.22     5.05     4.89     4.74     4.62     4.51     4.43     
 4.38     4.36     4.38     4.53     4.78     5.12     5.50     5.93     6.40     6.90     
 7.40     7.99     8.64     9.35     10.09    10.89    11.77    12.70    13.65    14.64    
 15.66    16.80    17.98    19.22    20.53    21.92    23.32    24.76    26.23    27.79    
 29.43    31.11    32.76    34.50    36.33    38.21    40.08    42.00    44.00    46.06    
 48.13    50.24    52.41    54.65    56.88    59.12    61.41    63.79    66.16    68.55    
 70.96    73.37    75.75    78.22    80.69    83.16    85.62    88.06    90.49    92.90    
 95.24    97.59    99.93    102.19   104.39   106.48   108.52   110.43   112.20   113.89   
 115.48   116.92   118.19   119.36   120.40   121.20   121.73   122.06   122.21   122.15   
 122.03   121.66   121.16   120.53   119.74   118.87   118.36   117.23   115.91   114.42   
 112.79   110.90   108.91   106.61   104.09   101.18   98.03    94.65    91.07    87.37    
 77.90    
70119.99 67857.19 66429.78 65517.96 64964.08 61687.99 55301.78 50614.28 44997.58 39634.07 
 32978.79 27834.17 22689.55 17558.04 13918.29 9422.76  6571.74  3720.72  893.81   482.85   
 344.07   287.91   231.76   175.84   148.11   121.59   99.03    78.16    66.59    58.48    
 49.48    41.94    35.69    30.91    27.26    24.54    22.48    20.69    19.11    17.80    
 16.66    15.03    12.73    11.19    10.29    9.83     9.50     9.23     8.96     8.59     
 8.16     7.72     7.34     7.04     6.83     6.68     6.55     6.41     6.26     6.09     
 5.91     5.74     5.58     5.42     5.27     5.12     4.97     4.83     4.68     4.54     
 4.42     4.31     4.20     4.12     4.03     3.95     3.89     3.83     3.83     3.83     
 3.85     3.90     4.01     4.14     4.34     4.58     4.85     5.17     5.53     5.92     
 6.40     6.91     7.43     8.02     8.66     9.35     10.08    10.86    11.72    12.60    
 13.50    14.48    15.50    16.58    17.73    18.88    20.09    21.34    22.66    24.00    
 25.38    26.85    28.37    29.89    31.44    33.04    34.73    36.43    38.10    39.81    
 41.60    43.44    45.38    47.30    49.26    51.26    53.37    55.53    57.73    60.00    
 62.31    64.71    67.23    69.74    72.31    74.98    77.78    80.60    83.41    86.33    
 89.38    92.38    95.42    98.43    101.37   104.32   107.12   109.88   112.48   115.03   
 117.45   119.72   121.86   123.92   125.75   127.37   128.78   129.81   130.70   131.34   
 131.54   131.52   131.10   130.33   129.32   127.90   126.19   124.31   122.21   120.93   
 118.41   115.57   112.42   109.04   105.48   101.64   97.48    93.07    88.28    83.50    
 77.90    
70119.99 67487.13 65849.91 64872.85 62204.15 54623.34 49319.11 42828.41 35972.22 29264.85 
 23739.88 16975.27 11865.30 7198.54  2536.42  1748.07  1000.10  252.13   219.84   163.56   
 127.67   105.76   84.01    75.74    64.19    55.23    45.74    43.88    40.51    35.85    
 31.42    28.90    27.67    25.21    22.25    20.88    19.43    17.43    15.63    14.91    
 14.46    13.77    13.08    12.42    11.55    10.62    9.87     9.23     8.50     7.77     
 7.11     6.42     5.90     5.64     5.53     5.43     5.29     5.13     5.00     4.85     
 4.68     4.54     4.40     4.26     4.14     4.03     3.94     3.85     3.77     3.71     
 3.65     3.60     3.57     3.54     3.52     3.50     3.49     3.49     3.49     3.50     
 3.54     3.63     3.72     3.84     4.01     4.19     4.39     4.61     4.87     5.15     
 5.46     5.79     6.18     6.63     7.09     7.59     8.15     8.80     9.49     10.21    
 11.00    11.85    12.74    13.66    14.65    15.69    16.80    17.93    19.07    20.26    
 21.56    22.87    24.22    25.60    27.04    28.53    30.06    31.62    33.29    34.98    
 36.74    38.47    40.32    42.19    44.10    45.98    47.95    49.97    51.99    54.07    
 56.15    58.27    60.45    62.75    65.12    67.61    70.17    72.89    75.69    78.57    
 81.53    84.63    87.78    91.00    94.27    97.56    100.95   104.35   107.76   111.03   
 114.18   117.17   120.01   122.64   125.14   127.36   129.34   131.13   132.77   134.12   
 135.14   135.77   136.02   135.83   135.13   133.92   132.20   129.97   127.40   124.54   
 121.29   117.90   113.85   109.85   106.21   101.51   96.64    91.57    86.31    80.76    
 77.90    
70119.99 67084.46 65192.66 64012.08 60419.83 52312.53 45749.42 39161.66 30534.17 24046.59 
 17570.01 12489.95 10020.30 7550.65  5081.00  2611.35  164.46   117.28   71.74    44.46    
 30.87    22.48    17.33    14.32    12.31    10.92    9.92     9.35     8.93     8.59     
 8.39     8.30     8.14     7.84     6.95     6.25     5.86     5.64     5.41     5.26     
 5.16     5.02     4.83     4.66     4.54     4.44     4.34     4.23     4.16     4.09     
 4.01     3.93     3.84     3.74     3.69     3.64     3.59     3.54     3.52     3.49     
 3.45     3.40     3.35     3.32     3.28     3.26     3.23     3.22     3.21     3.21     
 3.20     3.19     3.19     3.19     3.19     3.21     3.21     3.23     3.25     3.28     
 3.33     3.39     3.47     3.57     3.70     3.84     3.99     4.16     4.35     4.57     
 4.82     5.09     5.39     5.72     6.08     6.48     6.91     7.41     7.92     8.49     
 9.09     9.72     10.40    11.15    11.96    12.80    13.69    14.61    15.61    16.61    
 17.67    18.77    19.90    21.03    22.20    23.45    24.73    26.07    27.39    28.79    
 30.26    31.81    33.42    35.12    36.86    38.66    40.54    42.52    44.56    46.63    
 48.75    50.93    53.22    55.51    57.81    60.19    62.68    65.18    67.72    70.36    
 73.20    76.08    79.07    82.25    85.47    88.80    92.20    95.69    99.13    102.74   
 106.48   110.21   113.78   117.39   120.77   123.86   126.73   129.22   131.49   133.40   
 135.10   136.52   137.50   138.00   137.97   137.32   136.08   134.17   131.71   128.71   
 125.22   121.31   117.04   112.40   107.60   102.38   97.08    91.76    86.28    80.77    
 77.90    
70119.99 66937.11 64883.48 63710.62 59789.27 51882.80 44984.32 38262.18 29370.07 24136.08 
 16382.90 10646.02 5751.29  865.71   150.11   93.78    43.86    24.43    17.51    14.62    
 12.73    11.44    10.38    9.54     8.69     7.93     7.24     6.74     6.21     5.80     
 5.56     5.31     5.14     4.97     4.84     4.70     4.66     4.68     4.77     4.79     
 4.82     4.88     4.90     4.84     4.73     4.64     4.55     4.46     4.41     4.29     
 4.20     4.10     4.03     4.00     3.96     3.88     3.84     3.80     3.76     3.70     
 3.67     3.64     3.62     3.56     3.52     3.49     3.49     3.46     3.44     3.41     
 3.37     3.35     3.33     3.33     3.33     3.34     3.34     3.34     3.34     3.38     
 3.41     3.49     3.56     3.64     3.72     3.84     3.97     4.11     4.28     4.48     
 4.69     4.94     5.22     5.52     5.85     6.21     6.62     7.06     7.54     8.04     
 8.59     9.20     9.85     10.54    11.31    12.14    12.98    13.85    14.74    15.68    
 16.66    17.69    18.73    19.81    20.93    22.07    23.22    24.39    25.61    26.86    
 28.16    29.51    30.96    32.45    34.03    35.69    37.47    39.37    41.31    43.32    
 45.36    47.45    49.67    51.98    54.33    56.70    59.07    61.53    64.04    66.61    
 69.21    71.96    74.84    77.81    80.91    84.05    87.28    90.76    94.22    97.63    
 101.21   104.89   108.61   112.27   115.84   119.13   122.14   124.91   127.36   129.50   
 131.37   132.91   134.15   134.88   135.11   134.72   133.68   131.98   129.66   126.79   
 123.34   119.50   115.44   111.08   106.71   102.11   97.56    93.05    88.51    83.71    
 77.90    
