IESNA:LM-63-2002
[TEST] 1
[TESTLAB] AOK
[TESTDATE] 2022-05-12
[ISSUEDATE] 2022-05-12 10:43:17
[NEARFIELD] 
[LAMPPOSITION] 0,0
[OTHER] EVERFINE GO-2000A_V1 SYSTEM
[MANUFAC] AOK
[LUMCAT] A
[LUMINAIRE] AOK-600WiSF-NVY-S5-00-5070-3585D-P
[LAMPCAT] B
[LAMP] 5050
[BALLAST] E
[BALLASTCAT] F
[OTHER] 
[OTHER] Gamma(deg)    Fz(lm)      Ft(lm)     %Lum    %Lamp
[OTHER]   0- 10      6164.52     6164.52     8.05     8.05
[OTHER]  10- 20     13157.07    19321.59    25.24    25.24
[OTHER]  20- 30     15173.25    34494.84    45.06    45.06
[OTHER]  30- 40     14434.37    48929.20    63.92    63.92
[OTHER]  40- 50     11786.23    60715.43    79.31    79.31
[OTHER]  50- 60      8341.03    69056.46    90.21    90.21
[OTHER]  60- 70      4510.96    73567.42    96.10    96.10
[OTHER]  70- 80      1755.47    75322.89    98.40    98.40
[OTHER]  80- 90       518.12    75841.01    99.07    99.07
[OTHER]  90-100       198.17    76039.18    99.33    99.33
[OTHER] 100-110       128.34    76167.52    99.50    99.50
[OTHER] 110-120       104.77    76272.29    99.64    99.64
[OTHER] 120-130        86.19    76358.47    99.75    99.75
[OTHER] 130-140        68.04    76426.52    99.84    99.84
[OTHER] 140-150        54.22    76480.74    99.91    99.91
[OTHER] 150-160        39.36    76520.10    99.96    99.96
[OTHER] 160-170        21.90    76542.00    99.99    99.99
[OTHER] 170-180         7.77    76549.77   100.00   100.00
[OTHER] 
TILT=NONE
1 76550 1 181 25 1 2 0.150 0.200 0.000
1.000 1 569.591
0.0    1.0    2.0    3.0    4.0    5.0    6.0    7.0    8.0    9.0    
 10.0   11.0   12.0   13.0   14.0   15.0   16.0   17.0   18.0   19.0   
 20.0   21.0   22.0   23.0   24.0   25.0   26.0   27.0   28.0   29.0   
 30.0   31.0   32.0   33.0   34.0   35.0   36.0   37.0   38.0   39.0   
 40.0   41.0   42.0   43.0   44.0   45.0   46.0   47.0   48.0   49.0   
 50.0   51.0   52.0   53.0   54.0   55.0   56.0   57.0   58.0   59.0   
 60.0   61.0   62.0   63.0   64.0   65.0   66.0   67.0   68.0   69.0   
 70.0   71.0   72.0   73.0   74.0   75.0   76.0   77.0   78.0   79.0   
 80.0   81.0   82.0   83.0   84.0   85.0   86.0   87.0   88.0   89.0   
 90.0   91.0   92.0   93.0   94.0   95.0   96.0   97.0   98.0   99.0   
 100.0  101.0  102.0  103.0  104.0  105.0  106.0  107.0  108.0  109.0  
 110.0  111.0  112.0  113.0  114.0  115.0  116.0  117.0  118.0  119.0  
 120.0  121.0  122.0  123.0  124.0  125.0  126.0  127.0  128.0  129.0  
 130.0  131.0  132.0  133.0  134.0  135.0  136.0  137.0  138.0  139.0  
 140.0  141.0  142.0  143.0  144.0  145.0  146.0  147.0  148.0  149.0  
 150.0  151.0  152.0  153.0  154.0  155.0  156.0  157.0  158.0  159.0  
 160.0  161.0  162.0  163.0  164.0  165.0  166.0  167.0  168.0  169.0  
 170.0  171.0  172.0  173.0  174.0  175.0  176.0  177.0  178.0  179.0  
 180.0  
0.0    15.0   30.0   45.0   60.0   75.0   90.0   105.0  120.0  135.0  
 150.0  165.0  180.0  195.0  210.0  225.0  240.0  255.0  270.0  285.0  
 300.0  315.0  330.0  345.0  360.0  
67383.45 64283.19 61609.04 60063.63 59098.32 52715.78 46395.72 39411.00 32322.84 25868.24 
 19123.61 13514.61 8390.61  3271.88  2430.42  1634.60  838.78   42.97    18.07    14.45    
 12.57    11.34    9.99     9.05     8.30     7.50     6.86     6.33     5.86     5.46     
 5.16     4.94     4.75     4.61     4.47     4.35     4.25     4.23     4.33     4.41     
 4.42     4.46     4.49     4.50     4.41     4.31     4.22     4.13     4.06     4.02     
 3.90     3.83     3.73     3.69     3.66     3.61     3.55     3.51     3.48     3.45     
 3.39     3.36     3.33     3.31     3.25     3.22     3.21     3.19     3.17     3.16     
 3.14     3.10     3.08     3.07     3.07     3.07     3.08     3.09     3.10     3.11     
 3.12     3.18     3.24     3.31     3.40     3.48     3.60     3.73     3.86     4.02     
 4.22     4.43     4.66     4.92     5.22     5.53     5.89     6.28     6.70     7.16     
 7.65     8.14     8.73     9.36     10.02    10.73    11.49    12.29    13.12    13.98    
 14.88    15.81    16.79    17.76    18.76    19.80    20.86    21.93    23.05    24.18    
 25.34    26.56    27.88    29.24    30.66    32.14    33.71    35.43    37.20    39.03    
 40.90    42.83    44.84    46.94    49.08    51.26    53.51    55.80    58.14    60.51    
 62.90    65.37    67.97    70.67    73.48    76.46    79.47    82.59    85.76    89.01    
 92.32    95.77    99.22    102.60   105.92   109.21   112.24   114.97   117.48   119.74   
 121.69   123.31   124.69   125.70   126.23   126.23   125.63   124.46   122.71   120.33   
 117.43   114.03   110.40   106.40   102.30   98.00    93.71    89.41    85.12    80.51    
 75.12    
67383.45 64405.81 61648.70 59818.74 58733.04 55617.42 48228.73 42300.24 36225.20 28329.44 
 22376.79 16434.55 11760.64 7977.15  4193.66  443.92   347.11   250.29   153.84   94.24    
 48.84    28.87    19.51    13.93    11.33    9.90     8.83     8.07     7.61     7.22     
 6.90     6.59     6.42     6.25     6.02     5.54     5.41     5.41     5.35     5.23     
 5.08     5.00     4.89     4.76     4.59     4.55     4.63     4.63     4.59     4.56     
 4.50     4.42     4.30     4.23     4.12     4.03     3.95     3.87     3.79     3.72     
 3.64     3.54     3.45     3.37     3.29     3.23     3.18     3.08     3.03     2.99     
 2.95     2.90     2.82     2.78     2.75     2.74     2.74     2.74     2.74     2.75     
 2.78     2.81     2.85     2.90     2.97     3.06     3.19     3.33     3.49     3.69     
 3.90     4.14     4.40     4.68     5.00     5.35     5.69     6.09     6.51     6.99     
 7.49     8.02     8.60     9.25     9.93     10.64    11.38    12.18    13.02    13.89    
 14.79    15.76    16.77    17.77    18.81    19.88    20.98    22.06    23.17    24.34    
 25.57    26.87    28.25    29.66    31.13    32.65    34.26    35.95    37.72    39.50    
 41.33    43.19    45.15    47.09    49.04    51.03    53.11    55.19    57.28    59.46    
 61.74    64.07    66.51    69.08    71.75    74.51    77.32    80.20    83.15    86.26    
 89.51    92.80    96.04    99.39    102.60   105.64   108.48   111.00   113.33   115.33   
 117.07   118.55   119.80   120.74   121.23   121.25   120.70   119.57   117.92   115.74   
 113.14   110.21   107.09   103.85   100.53   97.13    93.50    90.81    86.51    82.02    
 75.12    
67383.45 64726.32 62136.58 60208.56 59058.24 58328.77 53171.31 47356.46 41780.15 36312.31 
 28958.60 24619.43 18071.16 13511.47 9384.03  5260.96  1137.89  709.60   328.35   247.37   
 214.39   166.56   129.97   106.65   83.48    70.85    59.49    50.10    45.33    45.49    
 38.40    32.17    27.75    26.89    24.31    21.41    18.42    15.48    13.09    11.42    
 10.33    9.41     8.67     8.05     7.46     7.01     6.69     6.41     6.16     5.91     
 5.69     5.49     5.32     5.11     4.93     4.74     4.59     4.46     4.34     4.21     
 4.07     3.95     3.85     3.75     3.65     3.56     3.48     3.41     3.34     3.27     
 3.21     3.15     3.09     3.04     3.00     2.97     2.93     2.89     2.87     2.88     
 2.89     2.90     2.90     2.91     3.01     3.13     3.29     3.47     3.68     3.92     
 4.17     4.46     4.78     5.14     5.51     5.91     6.39     6.87     7.41     8.01     
 8.66     9.39     10.10    10.87    11.68    12.57    13.47    14.41    15.35    16.32    
 17.36    18.42    19.49    20.63    21.78    22.97    24.17    25.42    26.73    28.10    
 29.47    30.88    32.32    33.83    35.38    36.91    38.48    40.11    41.75    43.44    
 45.13    46.83    48.56    50.34    52.23    54.19    56.22    58.32    60.49    62.72    
 65.09    67.61    70.18    72.82    75.50    78.20    80.97    83.77    86.75    89.77    
 92.75    95.65    98.45    101.17   103.73   106.02   108.19   110.12   111.88   113.48   
 114.92   116.12   117.01   117.48   117.55   117.25   116.52   115.35   113.89   112.10   
 110.08   107.88   105.56   104.28   101.91   98.98    95.93    92.61    89.17    85.59    
 75.12    
67383.45 65147.82 63091.11 61169.58 59673.98 58711.20 58132.42 56125.78 50686.70 45571.54 
 40746.52 36403.67 30992.46 26318.16 21643.85 16978.84 13317.77 9499.39  6689.82  3844.78  
 1018.10  581.77   429.26   316.64   252.13   187.95   159.03   127.87   103.81   87.23    
 71.58    62.24    52.94    44.90    38.71    33.97    30.32    27.32    24.71    22.47    
 20.46    18.66    16.70    14.54    12.70    11.83    11.45    11.04    10.63    10.12    
 9.54     8.99     8.27     7.56     7.05     6.70     6.53     6.42     6.28     6.11     
 5.91     5.70     5.50     5.29     5.09     4.89     4.71     4.55     4.39     4.23     
 4.08     3.94     3.79     3.67     3.54     3.43     3.33     3.23     3.15     3.08     
 3.03     3.03     3.05     3.08     3.16     3.31     3.51     3.76     4.05     4.37     
 4.73     5.14     5.59     6.07     6.59     7.14     7.73     8.38     9.06     9.74     
 10.46    11.23    12.03    12.89    13.79    14.71    15.67    16.67    17.69    18.77    
 19.84    20.97    22.14    23.36    24.60    25.89    27.22    28.55    29.90    31.33    
 32.80    34.32    35.88    37.41    39.00    40.64    42.32    44.09    45.88    47.71    
 49.60    51.55    53.55    55.57    57.63    59.74    61.93    64.19    66.41    68.73    
 71.13    73.54    76.01    78.49    80.96    83.50    85.95    88.39    90.70    92.96    
 95.17    97.27    99.21    101.07   102.81   104.46   106.00   107.36   108.56   109.56   
 110.35   110.93   111.25   111.35   111.19   110.77   110.16   109.31   108.33   107.20   
 106.44   105.62   104.61   103.13   101.40   97.88    96.97    94.91    92.46    89.93    
 75.12    
67383.45 65794.22 64350.03 63011.04 61661.63 60465.09 59144.31 57833.41 56875.15 56124.29 
 54118.55 49912.67 45624.31 42693.27 38986.63 35106.53 32104.28 27881.34 23658.07 21193.46 
 18589.41 14814.37 12160.46 9946.10  7736.53  5526.96  3074.81  1272.53  876.52   498.41   
 372.36   268.89   198.58   152.47   124.21   104.20   84.27    72.71    65.95    57.18    
 48.73    43.08    38.93    33.73    30.77    27.78    25.73    23.85    21.26    19.42    
 17.66    16.15    14.54    12.56    11.11    10.43    9.95     9.58     9.23     8.87     
 8.44     8.09     7.75     7.46     7.19     6.92     6.66     6.42     6.19     5.99     
 5.78     5.59     5.41     5.23     5.05     4.87     4.69     4.51     4.34     4.20     
 4.07     3.96     3.89     3.86     3.86     4.01     4.28     4.60     4.95     5.34     
 5.76     6.23     6.71     7.24     7.83     8.48     9.15     9.86     10.62    11.45    
 12.29    13.17    14.11    15.10    16.15    17.24    18.37    19.57    20.81    22.09    
 23.41    24.81    26.20    27.65    29.12    30.69    32.27    33.91    35.61    37.34    
 39.09    40.92    42.80    44.71    46.63    48.55    50.59    52.66    54.72    56.79    
 58.89    61.03    63.19    65.32    67.47    69.58    71.73    73.90    76.06    78.20    
 80.25    82.29    84.28    86.31    88.31    90.22    92.07    93.80    95.40    96.97    
 98.48    99.84    101.07   102.18   103.17   104.02   104.79   105.47   105.98   106.37   
 106.66   106.81   106.90   106.89   106.81   106.67   106.43   106.13   106.33   105.23   
 104.59   103.97   103.43   102.88   102.13   100.81   99.49    98.53    97.40    96.08    
 75.12    
67383.45 66583.76 65845.60 65164.90 64510.09 63769.14 62784.86 61470.61 60303.76 59068.28 
 57765.10 56588.45 55483.99 54344.74 53588.09 52540.78 51398.77 50321.45 49231.74 48039.23 
 45903.88 43244.99 40524.72 37772.82 35793.77 33630.05 31284.25 28627.28 26126.08 23967.11 
 21804.77 19185.65 16444.53 14431.87 12682.14 11007.68 9228.71  7742.66  6291.68  5324.71  
 4264.62  3398.94  2653.44  1909.30  1339.90  914.85   644.14   456.79   333.96   274.53   
 215.11   155.99   128.57   99.16    80.01    68.77    59.75    47.99    41.24    36.15    
 31.54    28.30    25.39    23.34    21.21    19.14    17.07    15.02    13.14    12.21    
 11.74    11.16    10.33    9.52     8.84     8.35     7.82     7.26     6.84     6.38     
 5.84     5.44     5.02     4.62     4.25     3.96     3.98     4.22     4.53     4.87     
 5.25     5.65     6.12     6.61     7.14     7.68     8.28     8.94     9.64     10.41    
 11.23    12.05    12.95    13.91    14.93    15.99    17.09    18.23    19.45    20.72    
 22.04    23.45    24.87    26.35    27.90    29.49    31.09    32.70    34.39    36.13    
 37.97    39.87    41.80    43.70    45.62    47.58    49.59    51.66    53.70    55.75    
 57.82    59.87    61.96    63.97    65.99    67.99    70.02    72.03    73.96    75.89    
 77.84    79.71    81.53    83.28    84.93    86.55    88.12    89.57    91.04    92.49    
 93.82    95.07    96.21    97.25    98.31    99.39    100.31   101.14   101.93   102.64   
 103.31   103.93   104.47   104.96   105.38   105.79   106.13   107.62   107.86   108.03   
 108.12   108.07   107.93   107.66   107.18   106.33   105.57   104.64   103.54   102.49   
 75.12    
67383.45 67392.03 67441.82 67579.85 67709.17 67778.64 67546.98 66987.12 66488.35 65949.03 
 65504.07 64862.39 64240.34 63577.44 62855.13 62205.15 61560.52 61022.58 60351.60 59630.20 
 58887.02 58171.09 57369.42 56446.47 55460.02 54539.54 53425.15 52543.87 51357.37 50154.05 
 48890.26 47653.19 46222.91 44773.29 43391.30 41948.32 40438.86 38741.95 37153.39 35561.17 
 33995.17 32282.66 30698.39 29129.72 27517.72 25987.11 24456.49 22927.15 21507.93 20163.76 
 18964.27 17652.25 16352.33 15076.81 13861.25 12670.84 11657.84 10697.22 9721.39  8734.39  
 7836.22  7015.40  6296.07  5625.27  5028.05  4469.23  3956.63  3460.45  3048.48  2636.51  
 2225.65  1909.37  1620.29  1363.03  1125.04  914.30   726.68   569.04   443.92   340.57   
 265.61   190.91   138.48   102.42   74.37    47.92    19.09    8.03     5.85     5.46     
 5.06     4.81     4.20     3.73     3.48     3.17     2.34     2.34     2.41     2.49     
 2.58     2.69     2.81     2.94     3.08     3.23     3.40     3.57     3.77     3.97     
 4.20     4.43     4.69     4.97     5.27     5.57     5.89     6.23     6.59     6.97     
 7.37     7.77     8.19     8.63     9.10     9.60     10.11    10.63    11.16    11.72    
 12.29    12.88    13.48    14.09    14.73    15.39    16.08    16.81    17.56    18.31    
 19.10    19.90    20.73    21.63    22.56    23.55    24.52    25.54    26.60    27.73    
 28.90    30.12    31.36    32.71    34.13    35.61    37.25    39.07    40.98    43.04    
 45.17    47.39    49.66    52.04    54.45    56.93    59.42    63.36    65.13    68.48    
 70.97    73.46    75.83    78.11    80.29    82.36    84.22    85.78    87.11    88.25    
 75.12    
67383.45 68200.10 69089.17 70063.49 71006.19 71901.86 72590.44 72975.20 73345.00 73730.78 
 74080.45 74466.06 74868.10 75012.38 74965.12 74759.14 74532.42 74381.35 74066.09 73604.35 
 72754.80 71897.68 70863.31 69545.41 68277.55 67098.75 65928.72 64576.96 63188.00 61814.77 
 60385.35 59003.70 57501.71 55817.42 54135.57 52546.42 50857.28 49223.77 47619.27 45990.51 
 44486.21 42894.61 41302.17 39766.08 38294.95 36767.98 35204.27 33636.23 32164.90 30823.34 
 29401.96 27879.56 26505.05 25216.49 23908.60 22548.17 21263.80 20064.70 18975.10 17898.48 
 16692.94 15626.44 14610.35 13699.37 12688.79 11836.45 10985.57 10134.69 9273.65  8421.93  
 7616.44  6905.73  6221.32  5575.20  4975.14  4479.96  4006.17  3559.11  3131.47  2719.51  
 2397.55  2104.10  1838.27  1590.89  1400.88  1238.35  1091.10  943.99   835.85   743.53   
 664.98   595.39   530.44   475.43   430.26   391.13   355.27   324.45   298.25   275.03   
 254.00   237.07   221.59   207.87   194.57   182.98   173.46   165.16   157.48   150.42   
 143.90   137.60   131.88   125.15   118.41   112.28   107.00   102.10   97.43    93.37    
 89.23    85.18    81.20    76.85    72.26    67.15    61.62    53.77    44.85    37.44    
 30.19    24.39    20.30    15.55    11.44    9.93     10.21    10.76    11.35    11.94    
 12.54    13.15    13.75    14.35    14.97    15.60    16.22    16.83    17.47    18.11    
 18.77    19.44    20.15    20.95    21.80    22.71    23.74    24.87    26.13    27.61    
 29.21    31.10    33.14    35.39    37.77    40.28    42.91    45.72    48.63    51.70    
 54.74    59.29    62.47    65.50    68.51    71.56    74.38    77.03    79.47    81.87    
 75.12    
67383.45 68966.20 70602.03 72305.80 73974.95 75771.14 77441.97 79041.02 80054.84 81040.63 
 81390.64 81001.83 80023.73 78874.59 77890.03 76880.43 75793.97 74666.53 73474.77 72277.26 
 70987.00 69608.29 68237.88 66891.52 65535.37 64027.36 62599.50 61149.29 59514.14 57871.43 
 56264.63 54600.36 52864.32 51193.03 49553.46 47872.90 46126.37 44585.15 43067.43 41498.20 
 39989.55 38506.55 37177.31 35920.91 34701.55 33559.72 32515.17 31534.11 30478.40 29230.67 
 28059.70 26921.24 25813.08 24704.93 23596.87 22498.30 21348.01 20206.22 19131.28 18091.15 
 17066.23 16154.21 15345.69 14507.59 13680.93 12838.64 12003.61 11124.08 10277.68 9440.96  
 8665.72  7884.07  7112.08  6397.91  5681.14  4952.06  4221.08  3655.50  3180.30  2761.53  
 2342.78  1926.73  1651.52  1433.63  1237.75  1090.22  962.16   858.00   769.98   694.95   
 636.00   577.37   519.34   472.57   434.41   405.29   380.05   359.61   341.44   326.01   
 312.09   299.50   288.32   277.91   269.48   262.03   254.76   248.20   241.64   235.10   
 230.33   225.41   220.76   216.29   212.02   207.75   203.55   199.98   196.24   192.29   
 188.67   185.26   181.69   178.04   174.80   171.53   168.18   164.69   161.18   157.43   
 152.68   146.39   139.68   133.10   127.04   120.53   114.15   107.94   101.93   95.39    
 87.67    79.41    72.48    67.28    62.65    58.08    50.57    31.50    17.94    13.81    
 12.23    12.71    13.43    14.16    14.92    15.70    16.50    17.35    18.26    19.30    
 20.44    21.74    23.22    24.91    26.72    28.76    30.98    33.47    36.19    39.19    
 42.40    46.05    49.45    53.21    58.37    62.24    65.96    69.57    73.21    76.84    
 75.12    
67383.45 69694.87 71970.92 74343.11 76880.82 79232.48 81172.13 82393.80 82260.65 81328.37 
 80505.31 79538.75 78426.38 77493.55 76357.29 75078.76 73666.34 72317.26 70808.38 68724.32 
 66386.05 64177.95 61967.03 59780.16 57826.44 55942.94 54268.94 52721.34 51471.17 50472.61 
 49552.67 48661.55 47718.51 46750.92 45847.36 44916.23 43960.77 42780.10 41524.74 40237.35 
 38965.69 37714.24 36422.86 35078.93 33666.30 32261.09 30783.67 29434.19 28202.26 26991.34 
 25827.97 24717.92 23764.81 22809.19 21833.48 20813.42 19744.80 18699.85 17671.18 16642.64 
 15585.96 14564.02 13555.59 12507.19 11497.50 10488.18 9478.86  8493.84  7499.67  6608.02  
 5857.32  5258.05  4747.72  4222.83  3716.08  3285.97  2799.63  2451.91  2154.27  1892.48  
 1637.91  1444.89  1269.06  1140.79  1012.88  884.97   787.76   705.68   634.86   584.30   
 536.68   488.81   446.39   411.37   380.58   356.86   339.60   325.73   314.48   304.62   
 294.89   287.01   280.06   274.61   268.87   264.05   259.42   254.34   250.04   246.20   
 242.00   238.33   234.61   230.42   226.57   222.86   219.45   216.06   212.52   209.34   
 206.03   202.58   199.13   194.68   189.42   184.87   180.09   175.54   171.00   166.80   
 162.38   158.79   156.05   153.35   150.92   147.78   144.95   142.26   139.78   137.22   
 134.75   131.70   128.70   125.69   123.69   118.38   112.25   107.88   102.76   97.45    
 90.67    79.71    75.40    73.69    69.85    50.76    27.73    20.69    16.10    15.06    
 15.23    16.44    17.81    19.30    20.87    22.51    24.27    26.26    28.55    31.16    
 34.06    37.23    40.70    44.27    48.12    52.53    57.13    61.79    66.63    71.96    
 75.12    
67383.45 70177.51 72843.37 75854.63 78937.82 81334.20 82552.73 82082.76 81297.28 80353.12 
 79394.45 78576.77 77458.26 76312.59 74888.97 72985.72 70487.54 67793.82 65146.70 62704.50 
 60488.61 58690.20 56941.91 55744.63 54722.86 53631.86 52444.42 51228.66 49989.74 48817.77 
 47559.76 46158.59 44432.16 42662.42 40965.05 39286.65 37516.27 35759.47 34135.92 32605.68 
 31178.20 29966.73 28821.13 27771.35 26681.71 25613.28 24651.64 23690.83 22802.21 21964.30 
 21090.02 20195.10 19271.82 18319.01 17279.52 16324.87 15397.09 14472.88 13397.76 12409.11 
 11522.32 10597.72 9570.71  8694.43  7963.05  7250.16  6667.56  6106.21  5593.21  5116.49  
 4617.15  4195.39  3711.17  3330.74  3009.64  2727.06  2444.72  2185.23  1917.16  1721.86  
 1525.00  1367.55  1212.20  1082.73  964.66   860.93   775.21   699.30   638.63   589.83   
 543.25   498.99   455.44   419.91   390.15   364.47   346.63   330.94   319.77   311.15   
 303.34   296.50   290.93   285.50   280.81   276.57   272.73   269.28   266.05   261.91   
 258.46   255.50   252.18   249.03   244.78   240.52   236.26   231.25   226.45   221.71   
 216.46   211.78   207.92   204.07   200.33   196.58   193.32   189.97   185.94   181.58   
 177.69   174.21   169.98   166.26   162.86   159.51   156.20   152.73   149.80   146.09   
 141.83   137.87   134.07   128.82   127.31   126.41   126.10   124.91   124.76   122.06   
 117.48   110.67   106.56   103.48   99.92    91.32    82.48    80.43    75.91    61.82    
 26.49    19.01    17.02    16.89    18.29    20.07    21.91    23.86    25.84    28.04    
 30.39    32.99    35.95    39.29    43.07    47.22    52.02    57.22    62.68    68.58    
 75.12    
67383.45 70543.93 73654.02 77042.75 79851.49 81765.17 81258.65 80386.09 79486.35 78606.29 
 77686.60 76599.26 75319.23 73511.53 70926.22 67912.18 65074.14 62639.45 60546.99 58505.57 
 56974.18 55897.44 54868.54 53732.44 52499.80 51202.60 49888.94 48475.33 46814.48 44789.09 
 42819.86 40942.76 39078.45 37289.93 35569.79 33933.91 32350.53 30831.36 29277.04 27813.70 
 26605.90 25599.58 24770.31 24074.07 23398.92 22723.95 22005.15 21238.17 20450.86 19635.48 
 18742.56 17806.86 16894.62 16042.32 15126.87 14119.24 13226.33 12322.45 11359.28 10395.63 
 9431.97  8717.30  8019.86  7425.43  6860.25  6326.81  5846.55  5363.53  4914.41  4470.82  
 4022.02  3676.66  3361.25  3058.10  2786.13  2524.55  2245.72  2030.50  1822.32  1636.81  
 1476.53  1332.23  1192.49  1078.91  965.53   870.98   787.61   713.02   655.34   606.72   
 559.61   511.17   467.10   428.30   399.20   370.94   348.56   332.15   320.53   310.30   
 302.17   295.14   288.91   283.42   277.90   273.03   268.56   264.35   260.49   256.85   
 253.34   249.48   245.67   241.90   238.43   234.83   231.28   227.65   224.10   220.24   
 216.39   213.09   209.76   206.30   202.74   199.50   195.77   192.18   188.68   185.13   
 181.70   178.07   174.51   171.05   167.67   160.47   154.10   151.23   149.38   147.58   
 145.22   142.46   139.57   136.59   133.65   130.76   127.82   124.88   122.25   119.91   
 117.51   115.08   112.55   106.64   102.73   100.64   99.22    94.86    84.08    79.74    
 78.26    51.75    20.56    19.67    20.28    22.03    24.30    26.60    28.87    29.94    
 32.03    34.37    36.94    39.77    43.12    47.01    51.53    56.64    62.08    67.81    
 75.12    
67383.45 70590.91 73802.09 77327.76 80249.55 81762.98 81002.26 80082.14 79097.50 78129.46 
 77103.82 75891.88 74341.84 72030.19 69074.93 66063.74 63354.69 61024.35 58858.01 57123.06 
 56023.93 54999.63 53914.28 52692.84 51375.69 50017.40 48534.44 46906.63 44788.49 42786.91 
 40910.14 39112.13 37353.73 35584.05 33874.88 32248.79 30598.62 28927.90 27534.73 26457.23 
 25572.91 24912.87 24252.83 23592.94 22945.76 22249.31 21502.85 20711.02 19892.47 19026.18 
 18136.02 17233.71 16323.29 15344.26 14274.53 13374.30 12468.01 11414.94 10375.65 9556.59  
 8886.98  8171.35  7572.24  6999.88  6478.16  6014.05  5533.71  5079.55  4661.74  4184.44  
 3819.07  3495.85  3198.77  2934.53  2659.81  2385.49  2150.34  1944.39  1744.77  1585.60  
 1430.52  1289.74  1159.47  1035.83  927.07   835.05   752.98   682.59   626.78   575.95   
 528.45   480.90   436.58   397.69   367.93   340.49   319.65   303.59   292.21   283.29   
 276.11   269.86   264.17   259.00   254.45   250.43   246.84   243.67   239.79   235.91   
 233.00   230.05   227.28   224.60   222.04   219.27   216.86   214.35   211.88   209.35   
 206.10   202.83   199.99   197.01   193.98   190.86   187.71   184.62   181.64   178.58   
 175.46   172.33   169.06   165.85   162.71   159.52   153.16   146.22   143.68   141.68   
 140.02   138.49   136.67   134.29   131.74   129.29   126.98   124.82   122.60   120.42   
 117.82   115.61   113.71   111.99   110.22   108.25   107.21   104.34   95.02    83.82    
 82.52    71.94    32.33    21.59    22.71    23.85    26.08    28.76    31.45    34.07    
 36.52    38.94    41.31    43.79    46.61    49.97    54.08    58.90    64.34    69.89    
 75.12    
67383.45 70473.07 73752.50 77053.16 79688.51 80874.15 80092.06 79180.63 78169.89 77260.44 
 76422.71 75239.47 73766.03 71758.93 68975.97 65942.84 63112.48 60763.04 58720.91 56709.23 
 55370.05 54367.33 53371.50 52210.47 50996.89 49775.02 48494.04 47110.05 45395.50 43422.26 
 41513.34 39734.80 37992.83 36274.78 34596.27 33032.21 31480.89 29937.55 28425.95 27099.01 
 25993.94 25044.29 24229.75 23530.47 22859.75 22189.28 21447.98 20670.67 19873.40 19044.47 
 18162.57 17242.52 16341.76 15480.48 14568.47 13569.47 12699.51 11811.00 10811.81 9811.74  
 9044.20  8346.21  7671.51  7109.77  6555.49  6064.64  5600.69  5131.78  4699.52  4235.26  
 3830.18  3499.42  3196.40  2908.28  2649.39  2381.62  2132.09  1925.39  1722.65  1559.43  
 1409.31  1274.86  1155.20  1035.65  916.10   825.67   747.18   680.60   626.41   577.43   
 529.88   479.37   437.47   403.59   374.50   348.27   330.43   316.80   306.46   297.83   
 290.37   283.69   278.06   273.07   268.26   264.19   260.00   256.83   254.10   251.37   
 248.90   245.74   243.27   240.89   238.08   235.09   232.36   229.42   226.14   222.55   
 219.25   216.31   213.23   210.11   207.00   203.79   200.68   197.56   194.11   190.77   
 187.26   183.67   179.99   176.31   172.80   164.83   158.54   155.35   152.96   150.45   
 147.99   145.65   143.10   140.59   138.03   135.35   132.75   130.19   126.93   123.65   
 121.19   118.67   115.95   110.14   107.13   105.83   104.69   101.21   93.02    90.75    
 80.70    40.64    26.46    26.65    27.44    29.40    32.14    35.01    37.74    40.33    
 42.80    45.25    47.60    49.92    52.44    55.39    58.89    62.98    67.43    72.15    
 75.12    
67383.45 70123.55 72944.96 76030.78 78671.10 80626.65 80569.37 79730.88 78851.33 77921.30 
 76881.99 75865.06 74746.79 73304.16 71522.08 69115.54 66435.18 63720.56 61080.88 58810.20 
 56910.01 55115.27 53673.01 52634.11 51653.44 50637.32 49597.01 48494.01 47375.10 46232.47 
 45062.26 43554.78 41902.80 40275.23 38733.45 37171.60 35562.31 33907.57 32375.40 30965.98 
 29694.53 28528.50 27438.25 26414.62 25404.13 24522.66 23641.19 22759.88 21892.53 21007.14 
 20135.58 19229.26 18296.87 17338.15 16373.77 15421.12 14526.29 13588.93 12502.95 11585.99 
 10756.66 9772.32  8806.20  8032.01  7350.08  6728.76  6200.34  5683.18  5216.54  4730.83  
 4275.78  3867.33  3416.02  3087.29  2810.68  2534.08  2257.53  1987.83  1776.95  1592.78  
 1424.48  1271.82  1142.33  1021.77  910.24   812.65   731.25   663.06   609.38   562.11   
 516.40   468.38   427.74   395.00   366.30   343.75   325.87   313.26   303.03   293.90   
 286.40   279.73   273.87   268.99   263.96   260.03   255.86   252.66   249.26   246.16   
 243.19   240.55   237.01   233.48   229.94   226.21   221.72   217.06   212.98   208.02   
 203.77   200.16   196.77   193.53   190.37   187.23   184.64   181.38   177.86   174.10   
 170.67   166.70   163.38   160.24   157.10   154.08   151.17   148.69   146.31   143.40   
 139.10   134.86   129.29   127.77   126.44   126.22   126.07   127.80   127.39   125.09   
 120.99   115.65   112.90   110.29   107.62   104.40   99.47    96.42    84.07    44.60    
 32.60    32.25    32.38    33.50    36.07    38.94    41.75    44.51    47.10    49.64    
 52.06    54.40    56.70    59.12    61.66    64.43    67.59    70.86    74.36    77.90    
 75.12    
67383.45 69574.21 71954.03 74532.61 76899.99 78869.59 79911.54 79550.78 78663.07 77716.48 
 76831.21 75641.22 74556.81 73353.47 72064.08 70654.12 69061.87 67189.95 65234.21 62961.07 
 60607.71 58373.39 56190.38 54282.21 52519.38 50804.13 49286.50 48144.89 47234.50 46392.01 
 45596.48 44874.77 44057.17 43315.98 42494.30 41749.25 40753.51 39577.85 38411.74 37250.25 
 36127.39 34950.88 33708.20 32387.66 31085.73 29760.79 28482.04 27250.07 26153.82 25128.26 
 24098.30 23165.85 22276.81 21353.44 20379.53 19362.67 18349.30 17347.55 16365.23 15379.21 
 14327.39 13331.96 12334.23 11358.78 10383.55 9408.32  8471.96  7561.02  6731.01  5944.79  
 5321.99  4801.25  4309.30  3771.62  3320.74  2865.63  2503.64  2205.56  1949.56  1720.57  
 1505.91  1334.09  1183.39  1060.84  938.51   840.81   752.63   675.19   617.38   567.28   
 517.64   466.27   422.77   387.99   360.88   339.04   322.86   309.05   297.76   286.61   
 277.41   269.23   262.66   257.17   251.30   246.11   241.56   237.47   233.05   229.22   
 225.31   221.60   217.61   213.86   210.41   207.05   203.95   201.02   197.87   194.89   
 191.96   189.27   185.67   180.79   176.48   172.02   167.34   162.79   158.29   154.12   
 150.37   147.43   145.17   142.91   140.70   138.57   136.53   134.53   132.62   130.58   
 128.50   126.58   124.34   122.10   119.87   114.62   111.09   108.00   102.93   97.21    
 91.59    87.18    87.10    85.19    59.03    40.63    38.56    37.30    36.27    36.26    
 38.36    41.02    43.60    46.19    48.66    51.04    53.37    55.69    57.89    60.02    
 62.07    64.23    66.44    68.77    71.27    73.89    76.50    79.18    81.79    84.42    
 75.12    
67383.45 68908.56 70532.62 72421.18 74308.90 76121.36 77421.98 78527.54 79048.41 78693.37 
 77763.64 76566.84 75503.76 74394.58 73276.15 72023.86 70793.97 69516.69 68125.59 66818.44 
 65510.40 64090.62 62628.38 61142.23 59574.87 57950.74 56387.28 54770.51 53181.31 51652.97 
 50090.77 48546.83 46953.36 45394.55 43848.45 42409.65 40963.31 39530.07 38231.37 36968.54 
 35817.08 34687.79 33556.66 32545.08 31587.53 30656.99 29741.23 28774.20 27684.95 26634.07 
 25587.23 24556.47 23525.71 22494.96 21465.32 20395.28 19330.90 18321.16 17330.51 16377.77 
 15476.79 14678.55 13834.00 13043.34 12247.04 11484.02 10688.61 9919.30  9153.98  8397.60  
 7642.14  6931.23  6242.94  5592.77  4915.93  4219.02  3616.22  3152.73  2763.82  2374.91  
 1987.07  1694.79  1466.26  1268.45  1118.00  986.62   878.08   789.53   712.88   652.34   
 594.43   538.98   491.11   450.57   414.30   385.65   360.82   339.94   322.03   306.95   
 294.04   281.74   270.80   261.46   253.17   245.31   238.57   231.63   224.71   219.33   
 214.45   209.66   204.69   200.30   196.38   192.51   188.60   184.95   181.24   177.78   
 174.41   171.32   168.07   165.23   162.18   159.12   155.71   151.95   146.68   140.71   
 134.37   128.40   122.32   116.70   111.70   106.95   102.50   98.35    94.11    89.51    
 85.05    80.07    74.10    70.79    67.32    54.98    33.48    27.89    28.12    30.11    
 32.25    34.40    36.59    38.80    41.03    43.24    45.45    47.61    49.75    51.89    
 53.96    55.97    57.92    59.87    61.75    63.62    65.46    67.39    69.29    71.21    
 73.07    75.06    77.10    79.22    81.35    83.51    85.69    87.77    89.84    91.91    
 75.12    
67383.45 68191.30 69086.98 70048.27 71048.25 72007.71 72862.81 73431.09 73832.74 74221.41 
 74358.28 74473.86 74398.53 74394.09 74130.67 73487.23 72701.74 71817.85 70822.51 69688.88 
 68439.60 67204.51 65832.26 64748.76 63591.38 62315.05 61075.97 59817.69 58513.96 57087.84 
 55519.52 54075.67 52579.59 51060.15 49605.37 48044.29 46360.20 44831.66 43403.68 42029.70 
 40580.06 39129.68 37732.65 36389.50 34959.12 33619.51 32200.57 30796.22 29453.08 28095.14 
 26759.82 25432.46 24109.00 22831.30 21653.16 20494.99 19394.20 18343.51 17358.10 16315.97 
 15284.83 14306.10 13405.10 12497.23 11615.98 10806.93 9998.53  9184.63  8357.53  7576.35  
 6860.56  6201.40  5588.86  4995.85  4472.56  4019.49  3581.38  3180.89  2788.08  2443.68  
 2161.58  1906.69  1671.76  1475.05  1314.01  1157.96  1028.39  899.06   798.78   715.45   
 644.43   573.84   510.67   457.85   412.07   373.32   340.27   311.42   287.73   266.51   
 247.17   229.73   214.47   199.89   187.57   175.77   166.29   157.72   150.52   143.92   
 137.66   131.41   125.78   119.85   113.91   109.07   104.83   100.66   96.41    92.15    
 88.44    85.07    81.08    77.24    73.30    68.81    62.81    54.39    45.88    38.08    
 32.10    27.09    23.11    21.96    22.93    24.42    25.95    27.52    29.11    30.75    
 32.44    34.15    35.87    37.61    39.37    41.14    42.93    44.71    46.49    48.29    
 50.06    51.81    53.55    55.33    57.08    58.81    60.52    62.25    63.97    65.67    
 67.35    69.06    70.75    72.47    74.21    75.94    77.71    79.49    81.17    82.87    
 84.60    86.39    88.12    89.81    91.50    93.21    94.84    96.44    97.97    99.52    
 75.12    
67383.45 67395.42 67548.27 67706.68 67845.02 67718.05 67327.28 66885.03 66377.99 65886.21 
 65266.11 64560.18 63965.77 63360.56 62706.99 62000.62 61363.82 60826.29 60169.64 59471.35 
 58708.34 57799.99 56861.84 55927.38 54880.44 53796.10 52711.36 51717.80 50545.98 49387.91 
 47993.27 46599.71 45186.14 43667.91 42365.40 40896.57 39365.60 37653.05 36007.42 34370.06 
 32801.01 31124.46 29434.53 27880.97 26292.88 24712.41 23148.10 21772.87 20484.10 19051.48 
 17761.62 16469.74 15209.91 14018.71 12908.65 11905.75 10904.09 9902.43  8998.16  8137.34  
 7344.23  6606.83  5930.61  5306.83  4730.48  4206.39  3718.34  3240.47  2821.37  2449.36  
 2114.95  1812.32  1534.82  1289.77  1084.07  878.87   709.49   567.81   455.07   358.49   
 279.07   205.36   147.81   115.49   83.42    55.45    31.10    15.93    8.83     7.19     
 6.69     6.50     6.72     6.98     7.10     6.67     6.88     7.27     7.71     8.19     
 8.73     9.32     9.94     10.60    11.33    12.12    12.95    13.79    14.66    15.57    
 16.56    17.58    18.66    19.77    20.92    22.13    23.42    24.72    26.07    27.45    
 28.93    30.41    31.92    33.48    35.10    36.74    38.46    40.17    41.93    43.67    
 45.42    47.18    48.97    50.78    52.54    54.35    56.16    57.94    59.69    61.41    
 63.09    64.74    66.42    68.01    69.57    71.13    72.65    74.09    75.47    76.81    
 78.15    79.41    80.57    81.68    82.75    83.78    84.74    85.64    86.51    87.35    
 88.18    88.93    89.64    90.30    90.92    91.52    92.11    92.71    93.17    93.56    
 93.91    94.17    94.31    94.27    94.11    93.63    92.92    92.08    91.17    90.18    
 75.12    
67383.45 66552.10 65890.08 65244.12 64591.95 63702.09 62791.06 61772.12 60823.17 59746.36 
 58633.47 57544.56 56434.15 55637.54 54791.49 53364.31 50916.32 48212.32 45664.73 43071.14 
 40915.97 39009.29 36409.77 33858.24 31264.84 28952.39 26532.10 24111.81 21689.87 19100.60 
 16916.15 15127.61 13392.11 11335.42 9530.24  8054.10  6989.47  5917.67  4866.73  3908.76  
 3157.95  2407.14  1658.51  1198.16  848.73   603.69   431.70   332.20   266.86   201.74   
 159.65   131.28   108.44   88.61    77.81    66.59    54.73    46.30    39.94    34.86    
 30.21    26.92    24.75    22.81    20.78    18.76    16.44    13.29    10.64    9.93     
 9.59     9.22     8.77     8.22     7.70     7.27     6.94     6.55     6.19     5.79     
 5.46     5.09     4.76     4.45     4.19     4.17     4.41     4.73     5.08     5.48     
 5.91     6.42     6.93     7.48     8.08     8.71     9.39     10.10    10.87    11.68    
 12.51    13.39    14.34    15.35    16.41    17.45    18.55    19.71    20.94    22.18    
 23.47    24.82    26.25    27.72    29.24    30.79    32.39    34.02    35.64    37.35    
 39.09    40.92    42.79    44.65    46.49    48.38    50.30    52.27    54.25    56.21    
 58.18    60.15    62.16    64.10    66.03    67.93    69.89    71.81    73.65    75.43    
 77.20    78.92    80.55    82.18    83.73    85.26    86.74    88.18    89.51    90.79    
 92.04    93.19    94.25    95.26    96.20    97.04    97.77    98.40    98.95    99.43    
 99.79    100.05   100.25   100.42   100.60   100.66   100.69   100.77   100.61   100.33   
 99.90    99.33    98.61    97.64    96.40    94.78    92.84    90.80    88.58    86.40    
 75.12    
67383.45 65805.30 64355.95 63165.57 62348.27 61773.95 60730.57 59745.49 57865.11 53722.99 
 49079.63 45713.55 41855.30 37975.30 34803.40 30475.74 25738.18 22923.49 20069.07 16165.11 
 13297.32 10992.79 8694.73  6396.67  3932.40  1607.45  1188.63  789.78   390.92   294.09   
 225.60   175.01   134.80   115.14   95.72    84.63    76.78    66.66    57.96    50.51    
 45.39    39.48    36.11    32.46    29.88    27.32    25.58    23.23    20.86    18.90    
 17.13    15.38    12.55    10.43    9.19     8.64     8.30     8.05     7.79     7.53     
 7.29     7.04     6.82     6.59     6.39     6.19     6.00     5.81     5.65     5.49     
 5.33     5.16     5.00     4.84     4.68     4.53     4.39     4.26     4.15     4.06     
 4.00     3.96     3.96     4.03     4.21     4.50     4.84     5.23     5.63     6.07     
 6.55     7.06     7.62     8.26     8.92     9.66     10.43    11.25    12.10    13.01    
 13.98    14.99    16.02    17.15    18.35    19.59    20.86    22.15    23.55    25.00    
 26.47    27.98    29.49    31.07    32.76    34.46    36.20    37.93    39.71    41.62    
 43.57    45.53    47.49    49.44    51.44    53.54    55.67    57.80    59.96    62.16    
 64.36    66.62    68.86    71.11    73.39    75.72    78.00    80.29    82.56    84.80    
 87.06    89.29    91.49    93.62    95.70    97.70    99.65    101.56   103.31   104.97   
 106.53   107.98   109.34   110.58   111.72   112.62   113.33   113.85   114.20   114.34   
 114.47   114.33   114.02   113.55   112.99   112.27   111.63   111.11   110.00   108.73   
 107.28   105.62   103.87   101.79   99.50    96.71    93.70    90.55    87.29    83.95    
 75.12    
67383.45 65165.96 63139.11 61790.90 60919.59 60393.70 58188.77 52070.27 47568.42 42106.99 
 37314.06 31707.60 26827.35 21947.10 17077.43 13382.79 9514.83  6754.09  3859.78  983.34   
 510.19   351.73   290.74   229.75   169.02   138.67   111.37   90.98    72.63    59.54    
 49.46    41.13    34.64    29.72    25.77    23.17    21.39    19.88    18.61    17.34    
 16.29    15.29    13.99    11.77    10.26    9.41     8.95     8.63     8.37     8.10     
 7.75     7.35     6.96     6.62     6.36     6.19     6.06     5.94     5.82     5.67     
 5.52     5.36     5.20     5.04     4.90     4.76     4.62     4.49     4.36     4.23     
 4.10     3.98     3.88     3.79     3.71     3.62     3.55     3.49     3.47     3.47     
 3.47     3.50     3.56     3.67     3.81     4.02     4.26     4.53     4.84     5.19     
 5.58     6.00     6.49     7.03     7.60     8.19     8.84     9.56     10.30    11.07    
 11.87    12.72    13.65    14.65    15.69    16.73    17.81    18.94    20.15    21.37    
 22.62    23.92    25.28    26.68    28.12    29.61    31.13    32.62    34.16    35.73    
 37.35    39.04    40.80    42.54    44.28    46.09    47.98    49.94    51.96    53.98    
 56.08    58.25    60.49    62.78    65.10    67.50    70.02    72.59    75.13    77.77    
 80.58    83.35    86.13    88.91    91.70    94.45    97.12    99.75    102.24   104.69   
 107.03   109.25   111.31   113.28   115.12   116.82   118.26   119.45   120.49   121.29   
 121.82   122.11   122.08   121.70   121.01   120.06   118.76   117.25   115.51   113.98   
 112.43   110.04   107.28   104.21   100.94   97.28    93.35    89.32    85.19    81.00    
 75.12    
67383.45 64672.02 62294.19 60946.30 60158.66 57282.83 50285.09 45300.34 39484.64 32885.77 
 26477.93 21542.56 15385.88 10798.45 6455.06  2114.10  1192.50  305.68   227.97   205.52   
 149.07   125.65   102.63   79.60    70.81    60.14    51.45    43.82    40.62    37.10    
 33.12    29.39    27.19    25.62    23.33    20.83    19.57    18.01    16.10    14.47    
 13.92    13.54    12.90    12.26    11.77    11.00    10.11    9.46     8.82     8.07     
 7.38     6.67     5.92     5.41     5.23     5.16     5.09     4.93     4.77     4.62     
 4.48     4.32     4.17     4.04     3.91     3.78     3.68     3.59     3.52     3.44     
 3.39     3.33     3.30     3.26     3.23     3.21     3.20     3.19     3.19     3.19     
 3.21     3.26     3.34     3.44     3.56     3.71     3.89     4.09     4.30     4.54     
 4.82     5.12     5.44     5.81     6.23     6.68     7.18     7.70     8.29     8.95     
 9.65     10.38    11.17    12.01    12.91    13.83    14.80    15.81    16.85    17.95    
 19.08    20.27    21.49    22.74    24.04    25.38    26.77    28.20    29.69    31.20    
 32.75    34.37    36.04    37.75    39.46    41.19    43.00    44.86    46.71    48.57    
 50.47    52.38    54.40    56.48    58.62    60.80    63.11    65.55    68.10    70.75    
 73.46    76.18    79.06    81.99    84.98    88.03    91.13    94.21    97.34    100.47   
 103.53   106.40   109.10   111.72   114.19   116.41   118.39   120.19   121.85   123.32   
 124.57   125.46   126.03   126.24   125.97   125.28   124.12   122.45   120.43   118.01   
 115.28   112.27   108.85   105.05   101.47   97.81    93.30    88.32    83.90    78.88    
 75.12    
67383.45 64397.68 61815.21 60254.16 59296.40 53842.16 47310.71 40914.05 34860.66 28363.01 
 21865.36 15378.74 10256.46 8232.24  6208.03  4183.82  2159.60  154.47   109.65   70.54    
 43.49    29.65    21.22    16.27    13.36    11.37    10.06    9.20     8.69     8.27     
 7.94     7.77     7.67     7.55     7.14     6.22     5.64     5.32     5.10     4.91     
 4.79     4.70     4.54     4.36     4.22     4.13     4.03     3.93     3.84     3.77     
 3.71     3.64     3.55     3.45     3.39     3.35     3.32     3.27     3.24     3.21     
 3.19     3.14     3.10     3.06     3.01     2.99     2.97     2.95     2.93     2.92     
 2.91     2.91     2.91     2.91     2.92     2.92     2.93     2.94     2.96     2.98     
 3.02     3.07     3.13     3.21     3.31     3.43     3.56     3.71     3.87     4.06     
 4.27     4.50     4.76     5.06     5.37     5.69     6.06     6.46     6.95     7.45     
 7.99     8.55     9.15     9.79     10.51    11.27    12.05    12.87    13.74    14.64    
 15.62    16.62    17.64    18.68    19.77    20.89    22.04    23.17    24.36    25.63    
 26.95    28.35    29.82    31.31    32.85    34.49    36.24    38.04    39.83    41.69    
 43.63    45.64    47.73    49.83    51.95    54.12    56.40    58.69    60.98    63.38    
 65.94    68.54    71.26    74.09    77.04    80.08    83.17    86.36    89.57    92.85    
 96.23    99.70    103.07   106.50   109.77   112.81   115.63   118.18   120.51   122.50   
 124.26   125.80   127.04   127.90   128.23   128.07   127.38   126.05   124.19   121.78   
 118.87   115.53   111.78   107.63   103.30   98.65    93.79    88.85    83.74    78.61    
 75.12    
67383.45 64283.19 61609.04 60063.63 59098.32 52715.78 46395.72 39411.00 32322.84 25868.24 
 19123.61 13514.61 8390.61  3271.88  2430.42  1634.60  838.78   42.97    18.07    14.45    
 12.57    11.34    9.99     9.05     8.30     7.50     6.86     6.33     5.86     5.46     
 5.16     4.94     4.75     4.61     4.47     4.35     4.25     4.23     4.33     4.41     
 4.42     4.46     4.49     4.50     4.41     4.31     4.22     4.13     4.06     4.02     
 3.90     3.83     3.73     3.69     3.66     3.61     3.55     3.51     3.48     3.45     
 3.39     3.36     3.33     3.31     3.25     3.22     3.21     3.19     3.17     3.16     
 3.14     3.10     3.08     3.07     3.07     3.07     3.08     3.09     3.10     3.11     
 3.12     3.18     3.24     3.31     3.40     3.48     3.60     3.73     3.86     4.02     
 4.22     4.43     4.66     4.92     5.22     5.53     5.89     6.28     6.70     7.16     
 7.65     8.14     8.73     9.36     10.02    10.73    11.49    12.29    13.12    13.98    
 14.88    15.81    16.79    17.76    18.76    19.80    20.86    21.93    23.05    24.18    
 25.34    26.56    27.88    29.24    30.66    32.14    33.71    35.43    37.20    39.03    
 40.90    42.83    44.84    46.94    49.08    51.26    53.51    55.80    58.14    60.51    
 62.90    65.37    67.97    70.67    73.48    76.46    79.47    82.59    85.76    89.01    
 92.32    95.77    99.22    102.60   105.92   109.21   112.24   114.97   117.48   119.74   
 121.69   123.31   124.69   125.70   126.23   126.23   125.63   124.46   122.71   120.33   
 117.43   114.03   110.40   106.40   102.30   98.00    93.71    89.41    85.12    80.51    
 75.12    
