IESNA:LM-63-2002
[TEST] 1
[TESTLAB] AOK
[TESTDATE] 2022-05-27
[ISSUEDATE] 2022-05-27 08:47:15
[NEARFIELD] 
[LAMPPOSITION] 0,0
[OTHER] EVERFINE GO-2000A_V1 SYSTEM
[MANUFAC] AOK
[LUMCAT] A
[LUMINAIRE] AOK-600WiSF-NV-S5-00-5070-15D-
[LAMPCAT] B
[LAMP] 5050
[BALLAST] E
[BALLASTCAT] F
[OTHER] 
[OTHER] Gamma(deg)    Fz(lm)      Ft(lm)     %Lum    %Lamp
[OTHER]   0- 10     33431.01    33431.01    47.78    47.78
[OTHER]  10- 20     16371.69    49802.70    71.18    71.18
[OTHER]  20- 30      6143.68    55946.38    79.96    79.96
[OTHER]  30- 40      4171.00    60117.38    85.92    85.92
[OTHER]  40- 50      3381.54    63498.91    90.76    90.76
[OTHER]  50- 60      2655.75    66154.66    94.55    94.55
[OTHER]  60- 70      1807.71    67962.37    97.13    97.13
[OTHER]  70- 80       910.09    68872.46    98.44    98.44
[OTHER]  80- 90       342.97    69215.43    98.93    98.93
[OTHER]  90-100       170.08    69385.51    99.17    99.17
[OTHER] 100-110       136.96    69522.48    99.36    99.36
[OTHER] 110-120       122.37    69644.85    99.54    99.54
[OTHER] 120-130        94.79    69739.65    99.67    99.67
[OTHER] 130-140        65.81    69805.46    99.77    99.77
[OTHER] 140-150        46.72    69852.18    99.84    99.84
[OTHER] 150-160        52.11    69904.29    99.91    99.91
[OTHER] 160-170        47.72    69952.01    99.98    99.98
[OTHER] 170-180        15.36    69967.37   100.00   100.00
[OTHER] 
TILT=NONE
1 69967 1 181 25 1 2 0.150 0.200 0.000
1.000 1 567.452
0.0    1.0    2.0    3.0    4.0    5.0    6.0    7.0    8.0    9.0    
 10.0   11.0   12.0   13.0   14.0   15.0   16.0   17.0   18.0   19.0   
 20.0   21.0   22.0   23.0   24.0   25.0   26.0   27.0   28.0   29.0   
 30.0   31.0   32.0   33.0   34.0   35.0   36.0   37.0   38.0   39.0   
 40.0   41.0   42.0   43.0   44.0   45.0   46.0   47.0   48.0   49.0   
 50.0   51.0   52.0   53.0   54.0   55.0   56.0   57.0   58.0   59.0   
 60.0   61.0   62.0   63.0   64.0   65.0   66.0   67.0   68.0   69.0   
 70.0   71.0   72.0   73.0   74.0   75.0   76.0   77.0   78.0   79.0   
 80.0   81.0   82.0   83.0   84.0   85.0   86.0   87.0   88.0   89.0   
 90.0   91.0   92.0   93.0   94.0   95.0   96.0   97.0   98.0   99.0   
 100.0  101.0  102.0  103.0  104.0  105.0  106.0  107.0  108.0  109.0  
 110.0  111.0  112.0  113.0  114.0  115.0  116.0  117.0  118.0  119.0  
 120.0  121.0  122.0  123.0  124.0  125.0  126.0  127.0  128.0  129.0  
 130.0  131.0  132.0  133.0  134.0  135.0  136.0  137.0  138.0  139.0  
 140.0  141.0  142.0  143.0  144.0  145.0  146.0  147.0  148.0  149.0  
 150.0  151.0  152.0  153.0  154.0  155.0  156.0  157.0  158.0  159.0  
 160.0  161.0  162.0  163.0  164.0  165.0  166.0  167.0  168.0  169.0  
 170.0  171.0  172.0  173.0  174.0  175.0  176.0  177.0  178.0  179.0  
 180.0  
0.0    15.0   30.0   45.0   60.0   75.0   90.0   105.0  120.0  135.0  
 150.0  165.0  180.0  195.0  210.0  225.0  240.0  255.0  270.0  285.0  
 300.0  315.0  330.0  345.0  360.0  
555361.19 554760.79 550851.37 540084.91 467365.06 387318.31 303169.69 207673.77 140659.00 102533.19 
 64747.60 26962.00 13681.37 674.49   375.60   212.34   49.07    35.03    26.87    21.40    
 18.15    15.84    14.00    12.49    11.52    10.47    9.45     9.12     8.87     9.43     
 9.84     9.35     8.37     7.42     7.05     6.82     6.77     6.47     6.42     6.11     
 5.85     5.69     5.56     5.23     5.01     4.95     4.91     4.74     4.51     4.29     
 4.22     4.15     4.18     4.08     4.05     4.03     3.88     3.79     3.74     3.68     
 3.54     3.48     3.45     3.39     3.30     3.21     3.16     3.13     3.10     3.07     
 3.05     3.03     3.01     2.98     2.95     2.93     2.91     2.91     2.91     2.91     
 2.91     2.94     3.05     3.22     3.34     3.43     3.53     3.59     3.63     3.67     
 3.72     3.79     3.80     3.82     3.87     3.95     4.03     4.16     4.31     4.49     
 4.71     4.96     5.24     5.55     5.90     6.26     6.65     7.09     7.52     7.96     
 8.38     8.79     9.19     9.57     9.99     10.44    10.91    11.40    11.94    12.51    
 13.12    13.73    14.40    15.08    15.80    16.53    17.35    18.19    19.07    19.96    
 20.89    21.87    22.89    23.94    25.00    26.09    27.27    28.57    29.99    31.58    
 33.29    35.31    37.68    40.53    43.94    47.96    52.78    58.87    66.48    75.81    
 87.47    101.12   117.02   134.26   152.74   171.85   191.52   211.36   231.12   250.88   
 268.16   284.08   296.64   305.47   310.04   310.70   307.87   302.17   294.20   285.00   
 274.71   263.55   251.65   239.34   226.79   213.71   200.20   186.21   171.62   155.43   
 137.67   
555361.19 553622.34 549099.65 538037.36 485777.81 399639.58 313199.80 226760.02 140674.59 101782.94 
 58200.05 43862.60 29525.16 15187.71 975.99   747.35   595.02   375.73   263.92   152.64   
 112.18   84.47    68.57    62.93    49.97    38.36    25.93    20.16    16.51    14.09    
 12.52    11.22    9.51     7.85     6.86     6.26     5.84     5.79     6.08     6.51     
 6.52     6.46     6.36     6.23     6.04     5.89     5.74     5.60     5.41     5.25     
 5.07     4.89     4.71     4.58     4.43     4.30     4.21     4.10     3.95     3.86     
 3.79     3.69     3.61     3.51     3.41     3.29     3.22     3.14     3.05     2.94     
 2.84     2.75     2.67     2.60     2.53     2.48     2.42     2.38     2.38     2.38     
 2.39     2.40     2.44     2.48     2.54     2.61     2.68     2.76     2.85     2.95     
 3.03     3.11     3.21     3.32     3.44     3.55     3.71     3.87     4.06     4.27     
 4.51     4.77     5.04     5.35     5.66     5.99     6.34     6.72     7.12     7.53     
 7.96     8.42     8.86     9.30     9.77     10.28    10.80    11.37    11.94    12.52    
 13.13    13.78    14.47    15.19    15.90    16.66    17.46    18.30    19.18    20.09    
 21.05    22.05    23.08    24.11    25.19    26.32    27.55    28.90    30.36    32.01    
 33.91    36.09    38.56    41.50    44.96    49.10    54.10    60.26    67.87    77.69    
 89.39    103.37   120.31   137.26   156.09   175.37   195.21   214.66   234.19   252.80   
 270.24   285.96   298.06   306.55   310.47   310.49   307.38   301.49   293.60   284.41   
 274.14   263.21   251.76   239.97   227.87   215.89   202.48   187.36   170.21   152.49   
 137.67   
555361.19 551692.16 544773.69 529872.44 495546.18 405800.05 315960.97 227469.76 156011.49 118304.85 
 80998.07 43691.29 28158.30 16838.30 11587.65 6401.32  1214.99  829.56   505.26   372.95   
 275.63   208.47   161.69   121.74   100.01   78.47    67.29    57.98    49.97    41.12    
 36.07    31.81    28.07    25.27    22.66    19.15    16.17    14.61    13.71    13.13    
 12.75    12.14    11.72    11.24    10.57    9.83     9.16     8.59     7.76     7.13     
 6.45     5.60     5.16     5.02     4.93     4.82     4.61     4.39     4.13     3.89     
 3.71     3.58     3.48     3.34     3.19     3.06     2.94     2.84     2.75     2.67     
 2.61     2.55     2.50     2.45     2.40     2.35     2.30     2.27     2.25     2.24     
 2.24     2.28     2.33     2.38     2.44     2.51     2.60     2.69     2.79     2.89     
 3.01     3.16     3.30     3.46     3.62     3.80     3.98     4.18     4.38     4.59     
 4.82     5.05     5.30     5.57     5.85     6.17     6.49     6.84     7.21     7.59     
 7.98     8.41     8.85     9.30     9.77     10.27    10.77    11.29    11.84    12.42    
 13.02    13.64    14.29    14.96    15.63    16.34    17.10    17.89    18.69    19.55    
 20.45    21.42    22.43    23.49    24.65    25.90    27.33    28.91    30.66    32.64    
 34.81    37.22    40.00    43.34    47.19    51.71    57.14    63.90    72.58    83.05    
 95.19    108.98   125.00   142.32   160.62   179.73   199.45   218.96   238.70   258.44   
 274.64   288.40   298.52   304.93   307.63   306.98   303.35   297.41   289.71   280.79   
 270.74   260.15   248.57   236.75   224.89   212.14   197.51   181.75   165.67   150.11   
 137.67   
555361.19 550928.01 542223.94 525480.46 491555.48 437250.99 343493.96 264466.21 185612.42 130108.14 
 95168.07 62873.47 49605.89 37535.93 25465.97 13471.37 9629.76  5458.79  1325.91  1007.80  
 739.93   522.04   361.35   277.38   193.69   143.44   109.08   86.96    73.29    63.56    
 55.83    49.04    43.58    39.08    35.42    32.26    29.51    26.97    24.80    22.53    
 19.83    16.79    14.71    13.39    12.49    11.73    11.04    10.42    9.89     9.31     
 8.64     8.04     7.48     7.00     6.61     6.27     5.99     5.70     5.45     5.18     
 4.93     4.70     4.50     4.31     4.13     3.96     3.79     3.57     3.39     3.20     
 3.01     2.84     2.69     2.55     2.43     2.34     2.24     2.14     2.05     2.02     
 2.03     2.06     2.10     2.16     2.23     2.31     2.40     2.51     2.62     2.73     
 2.87     3.01     3.16     3.32     3.49     3.67     3.86     4.06     4.28     4.51     
 4.75     5.00     5.28     5.56     5.86     6.17     6.50     6.83     7.19     7.54     
 7.91     8.30     8.72     9.14     9.55     9.98     10.45    10.92    11.41    11.91    
 12.43    12.96    13.52    14.07    14.64    15.22    15.85    16.51    17.21    17.94    
 18.74    19.60    20.55    21.59    22.72    23.97    25.36    26.97    28.72    30.64    
 32.92    35.46    38.35    41.71    45.73    50.57    56.43    63.58    72.16    82.69    
 94.73    108.73   125.25   141.80   160.15   179.12   198.91   217.87   236.60   253.68   
 268.57   281.13   290.35   296.77   299.66   299.73   297.05   292.03   285.30   277.10   
 267.93   257.55   246.56   235.26   223.22   210.30   196.57   182.22   168.01   154.85   
 137.67   
555361.19 549045.36 536738.35 512917.58 469795.96 408766.04 339127.92 270253.04 205779.64 148916.71 
 120162.23 91734.72 63307.21 49441.68 38751.55 26672.16 21281.61 17639.55 11612.49 9252.33  
 6937.39  4148.94  3107.17  1321.08  947.50   589.52   449.26   337.55   244.22   185.54   
 150.37   126.87   109.71   92.61    80.48    69.19    59.95    52.31    45.77    40.59    
 36.14    32.54    29.55    26.77    24.36    22.37    20.45    18.46    16.71    14.49    
 12.30    10.99    10.21    9.58     9.02     8.57     8.21     7.87     7.58     7.31     
 7.05     6.84     6.61     6.40     6.23     6.08     5.93     5.79     5.65     5.49     
 5.29     5.04     4.79     4.49     4.16     3.84     3.50     3.19     2.89     2.53     
 2.32     2.30     2.30     2.35     2.42     2.50     2.60     2.69     2.80     2.92     
 3.06     3.21     3.37     3.54     3.73     3.93     4.14     4.37     4.61     4.86     
 5.13     5.40     5.68     5.98     6.30     6.60     6.93     7.28     7.62     7.97     
 8.34     8.73     9.12     9.52     9.93     10.36    10.80    11.26    11.72    12.20    
 12.69    13.17    13.67    14.16    14.67    15.19    15.74    16.33    16.92    17.54    
 18.19    18.91    19.70    20.58    21.55    22.59    23.82    25.27    26.88    28.77    
 30.91    33.37    36.33    39.91    44.21    49.52    55.94    63.67    72.98    83.93    
 96.58    110.51   126.05   142.87   160.44   178.37   196.50   213.93   230.59   245.43   
 260.25   271.29   279.94   286.08   289.52   290.21   288.62   284.68   278.93   271.79   
 264.28   255.47   245.27   234.78   223.48   211.48   199.08   186.60   174.37   162.57   
 137.67   
555361.19 548587.45 535521.99 510517.58 467540.58 406054.24 336487.30 279381.50 222275.68 165336.40 
 129960.44 103904.96 84716.01 69216.97 56410.75 46042.76 36746.82 31063.70 25380.58 19714.64 
 16358.42 13224.30 10264.39 8403.12  7030.25  5812.25  4754.79  4034.38  3500.32  3057.30  
 2614.27  2172.14  1848.90  1583.00  1337.16  1089.07  875.30   694.30   534.89   410.23   
 321.44   268.21   214.98   161.94   131.83   107.81   87.71    72.61    61.59    52.64    
 46.00    40.60    35.82    32.15    28.96    26.21    24.03    22.26    20.78    19.30    
 18.15    17.04    15.68    14.52    13.26    12.75    12.51    12.28    12.16    12.05    
 11.92    11.76    11.55    11.42    11.23    10.98    10.56    9.83     8.77     7.27     
 5.61     2.91     1.93     1.95     2.01     2.08     2.15     2.23     2.31     2.41     
 2.52     2.64     2.78     2.93     3.09     3.27     3.44     3.63     3.84     4.06     
 4.29     4.53     4.79     5.06     5.33     5.61     5.91     6.23     6.55     6.89     
 7.24     7.61     7.99     8.36     8.74     9.14     9.56     9.98     10.41    10.84    
 11.30    11.76    12.24    12.72    13.19    13.68    14.17    14.67    15.17    15.68    
 16.21    16.77    17.39    18.04    18.80    19.65    20.71    21.88    23.24    24.88    
 26.87    29.24    32.08    35.57    39.91    45.27    51.81    59.75    69.03    80.07    
 92.32    106.19   121.87   137.57   154.32   171.12   188.17   204.36   220.10   234.44   
 247.03   258.23   267.51   275.03   280.38   283.72   285.58   285.02   280.88   276.15   
 270.13   263.61   254.92   245.22   234.91   223.26   211.56   198.90   185.90   173.33   
 137.67   
555361.19 548519.78 536029.60 512207.57 469935.34 410647.73 342288.35 285429.74 228571.12 171919.68 
 135018.71 108082.01 88254.20 72942.67 60142.14 49863.31 41678.37 35060.77 29776.29 25653.22 
 21539.16 18289.41 15519.20 13225.31 11369.77 9984.96  9003.23  8278.29  7728.06  7269.10  
 6866.24  6499.50  6135.01  5795.82  5502.97  5209.86  4930.13  4667.07  4429.19  4193.64  
 3953.37  3718.34  3505.13  3337.93  3172.64  2999.63  2815.14  2639.37  2463.67  2293.78  
 2133.08  1974.69  1822.80  1675.55  1531.99  1391.56  1258.56  1132.80  1015.58  900.49   
 801.96   704.33   610.59   525.58   444.83   368.66   306.86   245.07   183.51   141.89   
 106.28   77.41    55.52    39.44    26.18    14.70    6.36     3.14     2.49     2.25     
 1.74     1.51     1.43     1.36     1.30     1.25     1.20     1.15     1.09     0.97     
 0.90     0.77     0.67     0.67     0.68     0.69     0.71     0.73     0.76     0.78     
 0.81     0.84     0.88     0.92     0.96     1.01     1.05     1.10     1.16     1.20     
 1.26     1.31     1.37     1.42     1.47     1.52     1.59     1.65     1.72     1.79     
 1.86     1.94     2.02     2.09     2.17     2.24     2.33     2.42     2.51     2.61     
 2.72     2.83     2.97     3.11     3.28     3.47     3.68     3.93     4.23     4.60     
 5.04     5.61     6.23     7.03     7.98     9.14     10.42    11.83    13.40    15.12    
 17.04    19.06    21.24    23.55    26.00    28.50    31.14    33.77    36.42    39.06    
 41.69    44.27    46.87    49.42    51.98    54.52    57.07    59.75    62.52    66.37    
 69.77    73.67    78.50    84.47    91.64    100.02   110.29   121.73   134.62   148.32   
 137.67   
555361.19 548095.66 534509.91 509756.02 468650.54 412336.44 346716.75 282428.14 225342.72 177847.16 
 140556.13 115135.38 96961.77 78847.98 66056.33 55868.87 47850.63 41341.40 35920.34 31070.16 
 26841.15 23060.09 19899.18 17099.21 14808.08 13070.56 11681.38 10878.90 10080.78 9538.66  
 9084.26  8698.31  8365.02  8058.62  7806.93  7585.34  7383.23  7173.66  6963.40  6767.76  
 6581.87  6387.27  6193.78  6010.72  5839.76  5662.10  5481.57  5305.43  5148.96  5005.08  
 4860.88  4727.48  4588.19  4444.04  4299.04  4149.63  4000.19  3855.95  3710.55  3560.73  
 3410.88  3267.04  3125.65  2981.08  2828.07  2674.99  2516.71  2367.18  2216.13  2065.87  
 1920.43  1779.83  1637.25  1492.67  1354.07  1226.73  1111.91  997.20   894.94   800.21   
 717.18   644.82   577.08   519.76   470.88   427.08   391.26   360.30   335.67   309.68   
 284.41   263.72   251.86   241.54   225.19   209.45   195.90   182.81   171.91   160.78   
 151.03   142.41   134.58   127.77   120.97   114.18   108.38   103.64   98.60    93.02    
 87.90    82.97    78.04    73.15    68.33    63.47    59.00    54.76    50.58    46.40    
 42.56    38.77    34.80    30.69    26.42    22.49    18.69    14.88    11.39    7.65     
 5.77     4.28     3.05     2.30     2.17     2.21     2.35     2.52     2.71     2.96     
 3.27     3.66     4.16     4.77     5.58     6.58     7.72     9.00     10.49    12.16    
 13.98    15.92    17.96    20.21    22.53    24.87    27.33    29.70    32.06    34.34    
 36.51    38.63    40.65    42.62    44.51    46.42    48.46    50.59    52.88    55.94    
 58.85    62.20    66.42    71.83    78.66    86.81    97.17    109.54   122.87   137.63   
 137.67   
555361.19 549485.68 538385.05 518222.18 484328.25 435031.43 375345.04 312714.90 256779.70 201000.87 
 160170.68 130533.19 108973.08 92374.19 78921.74 68296.64 60133.47 53192.27 47101.85 41743.09 
 36928.49 32410.84 28400.50 25029.45 21666.50 19013.59 16824.56 14998.60 13477.75 12253.89 
 11312.73 10565.62 10015.53 9622.88  9349.30  9119.34  8898.95  8677.41  8461.28  8262.74  
 8067.41  7874.74  7695.78  7501.64  7308.83  7127.46  6933.37  6744.11  6558.91  6379.42  
 6209.97  6046.97  5888.96  5715.83  5538.15  5353.40  5178.13  4994.40  4804.29  4613.73  
 4419.10  4218.18  4024.13  3838.09  3654.53  3470.06  3284.74  3094.17  2898.71  2693.55  
 2488.59  2299.98  2117.41  1941.77  1773.96  1607.27  1452.05  1310.43  1172.85  1051.54  
 939.91   840.68   754.72   683.35   625.45   576.41   536.45   499.98   470.94   441.10   
 412.59   387.37   365.36   348.74   333.89   319.95   306.78   293.72   282.38   271.90   
 261.49   252.94   244.97   236.99   229.04   223.15   217.13   212.02   207.45   203.05   
 198.83   194.84   191.13   187.52   183.84   180.49   176.79   173.42   169.84   166.21   
 162.65   158.90   154.89   150.76   146.54   142.00   137.54   133.02   128.28   123.49   
 118.71   113.99   109.25   104.17   99.24    93.82    88.07    82.31    76.99    71.32    
 65.39    60.07    54.88    49.34    44.11    40.23    29.16    13.75    10.79    9.69     
 10.94    12.85    15.00    17.33    19.82    22.41    25.16    27.88    30.68    33.44    
 36.12    38.61    41.02    43.37    45.56    47.52    49.29    50.98    52.58    54.29    
 56.26    58.75    62.46    66.48    71.62    79.12    88.72    100.60   114.27   129.34   
 137.67   
555361.19 549601.75 538634.63 520501.54 491030.27 447653.75 392800.96 332067.84 271911.57 216464.94 
 172685.06 140951.33 118062.50 102239.73 86473.75 76295.35 68384.88 61554.68 55331.12 49168.60 
 43871.56 38843.18 34504.69 30361.87 26770.19 23685.20 21146.09 18874.49 16906.50 15198.09 
 13776.46 12582.64 11917.55 11257.20 10596.84 10205.92 9865.31  9534.32  9235.49  8980.50  
 8755.15  8542.49  8338.77  8138.32  7948.32  7756.81  7574.11  7400.29  7224.14  7030.72  
 6840.91  6657.00  6475.16  6299.33  6121.17  5930.56  5721.82  5508.91  5296.37  5075.42  
 4857.61  4639.61  4421.42  4192.82  3974.93  3760.75  3549.40  3332.87  3116.29  2893.31  
 2680.69  2480.18  2279.91  2079.50  1893.09  1713.63  1533.82  1371.24  1224.41  1094.58  
 986.67   878.93   790.77   716.83   657.56   608.35   560.61   521.38   490.77   463.25   
 434.29   405.96   383.04   363.48   347.70   336.95   328.96   322.16   314.82   307.42   
 300.50   294.10   288.57   283.61   279.16   275.68   272.72   270.11   267.76   265.24   
 262.67   260.28   258.66   257.14   255.44   253.87   252.22   250.23   248.53   246.96   
 245.09   243.27   240.36   236.67   232.89   228.89   224.75   220.06   215.07   210.29   
 205.63   200.54   195.63   190.11   184.45   178.80   173.23   167.01   160.97   154.62   
 147.72   141.67   135.58   129.53   123.02   116.50   108.01   100.32   93.87    87.95    
 81.20    74.07    67.87    64.59    61.74    42.08    29.81    30.20    31.86    33.80    
 35.69    37.96    40.89    43.94    46.95    49.85    52.33    54.33    56.06    57.43    
 58.70    59.93    61.58    64.05    67.81    73.63    82.21    93.15    106.12   121.13   
 137.67   
555361.19 550893.18 542351.23 528907.79 507169.43 473341.77 426259.98 367305.69 303067.86 247411.39 
 191951.80 154837.84 127730.56 107751.70 92505.39 80449.60 70982.85 63181.00 56432.77 50297.39 
 44807.39 39697.22 34746.54 30694.54 27079.18 24461.13 21852.31 20018.36 18514.29 17311.44 
 16193.22 15222.83 14393.80 13673.29 13054.88 12499.91 11976.87 11456.55 11030.50 10649.36 
 10288.93 9958.79  9657.81  9366.57  9090.36  8836.66  8597.68  8353.72  8092.59  7831.22  
 7582.76  7346.99  7105.09  6851.91  6596.49  6345.93  6102.21  5862.35  5611.25  5354.90  
 5126.95  4905.29  4676.38  4441.58  4213.71  3979.12  3735.08  3503.01  3270.60  3043.84  
 2821.45  2598.39  2375.52  2169.00  1969.91  1781.68  1603.37  1434.92  1280.24  1146.11  
 1028.62  922.62   829.92   754.20   690.40   636.51   585.13   539.16   506.09   476.93   
 447.50   417.27   388.24   366.07   346.44   331.40   319.34   312.49   313.84   319.85   
 322.89   322.06   321.11   320.55   320.69   321.35   322.66   324.09   325.83   327.65   
 329.53   332.22   334.44   337.00   339.07   340.45   340.58   340.27   339.51   337.45   
 333.75   328.09   321.39   314.45   308.06   301.76   295.37   288.72   282.29   275.90   
 269.56   263.54   257.76   251.76   245.41   237.84   230.28   222.72   214.60   206.15   
 197.51   188.39   180.91   173.34   166.79   159.87   153.88   147.65   141.75   136.66   
 130.50   124.70   115.10   108.59   104.72   100.27   91.52    86.90    82.90    75.95    
 41.23    39.13    41.21    43.68    47.29    50.66    54.12    57.33    60.06    62.11    
 63.60    64.71    65.64    66.73    68.73    72.30    78.34    87.36    99.36    114.04   
 137.67   
555361.19 551167.17 543351.59 532464.65 515744.35 487948.11 441935.71 380914.76 313439.19 249140.20 
 195211.89 156140.68 127819.38 110877.85 94028.02 77178.20 67478.95 60004.69 53501.73 47768.76 
 42685.63 38101.38 34038.29 30670.19 27982.81 25920.74 24515.12 23405.85 22346.95 21383.10 
 20384.70 19409.63 18545.19 17760.63 16980.71 16236.34 15452.79 14672.87 13930.55 13237.71 
 12639.93 12117.96 11629.59 11141.53 10653.47 10200.58 9798.01  9405.84  9042.98  8675.54  
 8312.66  7975.99  7657.95  7349.68  7047.10  6712.98  6334.19  5983.42  5682.90  5401.60  
 5145.67  4897.41  4661.72  4410.57  4183.24  3960.94  3744.67  3529.66  3310.27  3088.03  
 2860.57  2635.46  2402.61  2177.45  1970.74  1780.99  1610.19  1443.96  1293.37  1173.89  
 1054.67  935.45   846.02   771.59   707.81   653.13   598.80   552.18   517.50   486.55   
 457.69   422.05   391.99   363.58   341.86   322.40   307.71   296.13   288.97   289.89   
 301.44   317.21   331.47   344.81   356.42   366.29   374.83   382.05   388.15   394.40   
 400.65   406.86   413.29   420.40   425.29   427.35   426.85   424.35   419.55   413.23   
 405.25   396.01   385.43   374.96   364.15   353.51   343.26   333.18   323.82   315.08   
 307.00   299.01   291.06   283.46   276.16   259.69   249.00   243.49   237.59   231.12   
 225.44   218.46   211.51   203.70   195.93   188.50   180.68   173.99   166.44   158.62   
 152.70   147.84   143.19   138.07   129.85   124.46   119.09   115.41   109.52   99.78    
 92.71    85.75    46.86    47.73    51.29    54.41    57.74    61.52    64.87    67.77    
 69.96    71.39    72.25    72.83    73.86    76.33    81.36    89.87    102.00   117.88   
 137.67   
555361.19 552578.90 546894.95 538962.88 527379.27 506728.34 468956.91 412454.75 343881.80 284674.50 
 225467.18 166549.52 133945.42 109465.84 91329.02 78001.82 67691.04 60169.41 53937.16 48596.89 
 44103.30 40179.84 36878.40 33904.30 31679.25 30222.43 29154.28 28335.75 27659.18 27009.41 
 26300.63 25398.93 24323.99 23248.94 22162.67 21038.17 19887.96 18688.91 17544.36 16519.95 
 15568.64 14691.90 13898.35 13228.26 12633.18 12068.49 11506.12 10902.54 10325.12 9767.56  
 9268.45  8820.74  8400.94  7982.16  7551.64  7136.93  6560.47  6056.54  5789.26  5552.26  
 5311.21  5064.25  4791.38  4519.05  4258.16  3993.51  3744.19  3508.12  3279.32  3056.89  
 2833.26  2609.74  2386.40  2177.79  1990.10  1807.06  1635.79  1469.27  1320.48  1185.81  
 1067.36  958.55   866.36   788.07   722.13   662.56   607.43   556.47   519.78   486.56   
 455.56   423.10   391.50   359.47   334.56   313.10   295.55   282.63   271.49   264.85   
 267.74   284.21   309.33   333.97   354.76   373.07   389.31   403.96   415.22   423.54   
 427.11   427.48   426.30   424.51   422.03   419.29   415.71   410.96   405.38   398.46   
 390.17   381.44   372.65   363.49   354.79   345.50   337.12   329.43   321.87   314.40   
 307.27   300.12   292.90   285.73   278.52   271.41   261.60   245.98   239.60   233.24   
 227.97   222.04   215.86   209.36   203.04   196.51   189.94   183.63   177.04   170.43   
 163.64   157.86   153.08   149.00   144.69   140.48   134.85   127.61   117.50   113.78   
 98.98    95.83    79.19    51.42    54.77    57.94    61.85    65.84    69.70    73.25    
 76.15    78.29    79.68    80.34    80.63    81.72    84.81    91.12    102.19   117.82   
 137.67   
555361.19 553199.13 548353.20 541783.73 532389.49 514112.73 478535.91 422991.63 355675.94 282321.48 
 218522.47 171065.76 137201.21 117730.63 98376.04 79021.44 68571.25 60874.34 54412.32 48901.95 
 44127.30 39971.77 36343.42 33186.07 30657.44 29008.02 27931.27 27189.34 26657.05 26229.48 
 25696.29 24956.68 24088.73 23144.56 22116.72 21040.73 19833.83 18598.20 17440.69 16379.29 
 15409.65 14460.65 13614.54 12836.54 12173.75 11595.82 11018.60 10441.38 9938.85  9465.79  
 9040.23  8656.70  8268.76  7894.40  7592.25  7337.23  6906.71  6351.24  5948.67  5652.01  
 5393.48  5149.14  4906.63  4646.54  4404.68  4182.63  3955.54  3733.22  3499.32  3264.12  
 3020.09  2786.01  2551.85  2324.25  2109.12  1917.74  1738.19  1563.15  1403.38  1260.98  
 1147.77  1034.81  921.84   839.82   769.09   708.08   649.06   597.04   556.17   522.34   
 490.95   456.47   424.30   391.84   366.63   342.54   323.14   308.73   296.01   288.74   
 291.82   307.59   327.88   344.23   355.23   361.97   364.86   365.06   364.07   363.20   
 362.28   360.98   360.11   359.24   357.55   354.73   350.60   345.45   339.41   332.71   
 326.36   320.22   313.66   307.56   301.55   295.51   289.67   284.28   278.64   273.28   
 267.63   261.93   256.14   250.40   244.57   237.44   226.64   221.33   216.58   212.06   
 207.54   202.50   197.24   191.89   186.15   181.01   176.26   170.83   165.61   159.87   
 154.94   150.94   146.51   141.60   133.84   129.01   124.21   120.12   112.49   97.91    
 94.26    90.33    53.94    54.68    57.91    62.16    66.74    71.20    75.37    78.95    
 81.98    84.42    86.20    87.36    88.33    89.38    91.99    97.19    105.60   117.96   
 137.67   
555361.19 554730.74 551349.68 545846.88 537896.52 523327.02 493706.47 447297.20 384175.16 313732.81 
 251779.28 190081.15 151623.87 123217.63 102569.26 87060.57 75291.84 66387.77 58825.13 52548.80 
 47020.10 42048.79 37468.04 33201.62 29500.83 26582.05 24702.78 22831.71 21634.64 20726.40 
 19924.37 19094.13 18227.93 17447.67 16798.14 16164.18 15420.77 14696.54 13970.24 13305.10 
 12670.30 12126.86 11618.14 11160.68 10700.66 10263.85 9862.05  9510.97  9185.22  8834.94  
 8475.48  8149.89  7846.03  7554.14  7260.66  6967.76  6692.33  6438.82  6175.76  5884.04  
 5604.64  5352.25  5116.50  4868.64  4611.50  4355.94  4088.52  3836.30  3581.85  3343.23  
 3123.46  2907.19  2681.68  2456.27  2237.96  2043.56  1846.83  1666.49  1495.32  1342.47  
 1201.48  1075.45  962.49   868.45   789.98   723.76   666.17   613.12   567.68   532.51   
 501.58   471.62   440.04   410.01   383.55   360.45   340.90   325.85   313.29   309.90   
 315.66   321.31   321.76   319.39   316.17   313.34   310.90   308.19   305.10   301.83   
 298.39   295.17   292.21   289.56   287.33   285.15   282.79   279.92   277.04   274.47   
 271.29   267.58   263.52   258.86   254.28   249.88   245.69   240.52   235.36   230.21   
 225.77   221.38   216.48   212.17   207.71   203.15   198.88   194.28   189.81   185.10   
 179.59   173.28   167.06   159.95   154.01   148.89   144.55   140.37   136.51   134.16   
 129.93   125.37   117.45   111.93   107.84   103.06   98.75    92.19    87.51    76.40    
 52.19    49.13    52.14    55.98    60.80    65.94    70.93    75.74    80.15    84.05    
 87.59    90.94    93.59    95.74    97.52    99.09    101.81   106.33   113.14   122.45   
 137.67   
555361.19 555397.44 552463.00 547124.87 538395.88 522462.31 493528.14 448707.71 390032.77 320811.02 
 254188.74 198291.35 157392.04 127641.04 111603.75 95673.74 79743.73 70426.81 62758.01 55860.35 
 49963.33 44609.90 39633.51 34973.27 30652.44 26960.54 23979.20 21438.44 19297.41 17595.51 
 16194.61 14974.64 13950.30 13113.82 12461.17 11940.80 11519.60 11099.18 10762.96 10450.92 
 10156.35 9853.53  9578.72  9333.86  9108.94  8897.05  8670.40  8435.19  8207.55  7974.75  
 7742.54  7510.90  7289.30  7066.59  6854.31  6632.48  6399.33  6157.25  5903.44  5650.74  
 5409.71  5169.02  4934.90  4692.42  4453.07  4229.79  4013.89  3783.20  3549.57  3319.13  
 3087.91  2877.18  2667.99  2457.83  2250.07  2053.56  1864.79  1677.69  1505.86  1350.22  
 1210.79  1088.36  966.06   866.07   782.76   713.44   653.75   603.44   558.83   524.51   
 495.35   465.83   436.15   406.80   382.70   362.62   346.50   335.59   329.27   323.12   
 315.29   307.92   299.73   293.00   286.68   280.70   275.26   270.07   265.36   261.04   
 257.03   253.27   249.48   245.26   241.81   238.66   235.61   232.74   229.56   226.77   
 224.02   221.32   218.44   215.61   212.47   208.81   205.06   200.88   197.14   193.26   
 189.25   184.94   180.71   176.35   171.95   167.71   163.23   158.35   153.68   148.80   
 143.37   137.40   131.38   125.02   118.65   112.87   106.89   99.16    92.66    86.25    
 80.18    74.92    68.75    65.22    62.62    58.80    35.07    34.56    36.85    40.32    
 44.39    49.56    54.98    60.50    65.74    70.72    75.35    79.47    83.19    86.62    
 90.11    93.84    97.20    100.22   102.54   105.19   109.44   115.29   122.44   131.17   
 137.67   
555361.19 557122.81 555329.02 550719.26 542191.45 526906.80 499277.23 458475.07 404786.29 340870.23 
 282975.83 225081.41 167448.67 133093.76 108469.99 91085.90 78309.77 68341.53 60428.14 53777.98 
 47986.75 42374.74 37233.97 32478.40 28203.38 24778.92 21364.45 18788.92 16606.71 14899.91 
 13599.41 12565.32 11701.35 11019.74 10503.35 10125.14 9799.38  9501.25  9235.58  9001.46  
 8791.65  8572.75  8385.04  8204.62  8029.37  7850.49  7669.92  7481.27  7287.76  7090.27  
 6894.77  6698.21  6513.31  6332.12  6152.00  5967.15  5791.16  5617.59  5446.01  5271.79  
 5078.70  4882.38  4684.45  4485.76  4290.66  4080.64  3876.93  3663.25  3455.22  3249.57  
 3042.38  2839.60  2637.71  2435.98  2247.00  2061.66  1876.24  1701.52  1538.19  1385.22  
 1238.77  1101.09  981.87   876.51   789.82   712.84   649.81   597.51   555.74   519.49   
 490.61   463.78   435.48   411.10   389.21   373.49   360.69   347.70   333.11   318.37   
 305.55   293.73   283.03   272.65   263.18   254.42   247.12   239.12   231.14   225.12   
 219.73   214.68   209.89   205.24   200.58   196.20   192.20   188.18   184.42   180.55   
 176.79   172.81   168.88   164.82   160.39   156.15   151.73   147.01   141.92   137.08   
 132.31   127.08   122.03   116.61   111.39   105.84   100.10   94.65    89.16    83.70    
 77.91    71.65    65.63    59.37    53.51    47.65    42.19    35.83    17.44    12.63    
 11.96    13.29    15.66    18.46    21.62    25.14    29.04    33.26    37.92    42.83    
 47.91    53.08    58.30    63.45    68.46    73.20    77.58    81.69    85.43    88.95    
 92.23    95.95    99.77    103.50   106.79   110.85   116.43   123.04   131.06   140.23   
 137.67   
555361.19 557797.15 556665.45 552091.52 543083.70 526264.74 496468.33 453111.72 394961.49 328546.93 
 262494.46 205052.84 159071.56 124733.33 102948.02 81260.83 67765.63 57484.68 49056.27 42106.78 
 36359.43 31653.14 27384.06 23491.32 20014.10 17123.26 14871.77 13212.97 11977.54 11215.01 
 10457.04 9986.72  9556.01  9197.55  8884.71  8622.91  8396.90  8192.49  8008.05  7830.89  
 7682.69  7531.96  7380.40  7214.38  7041.80  6849.88  6630.86  6421.67  6210.15  6015.10  
 5827.92  5650.33  5480.05  5303.42  5131.55  4966.55  4803.22  4648.35  4492.34  4325.05  
 4159.29  3993.60  3833.87  3676.21  3509.73  3347.59  3188.70  3032.25  2871.00  2703.28  
 2535.11  2365.72  2195.18  2024.57  1859.58  1708.29  1564.36  1422.50  1283.88  1167.47  
 1051.24  935.02   832.16   738.46   663.10   595.10   539.18   487.14   443.56   408.49   
 379.64   356.08   331.53   308.78   293.07   285.65   275.60   260.98   246.02   232.22   
 217.92   206.38   195.68   184.56   174.38   165.82   157.33   149.26   142.35   135.85   
 129.56   123.82   118.08   111.74   105.95   100.19   94.70    89.39    84.06    79.06    
 74.33    69.73    64.84    60.03    55.62    51.01    46.47    41.72    37.08    32.50    
 26.53    20.44    14.28    10.08    8.07     6.39     5.12     4.62     4.64     4.94     
 5.31     5.71     6.21     6.78     7.47     8.34     9.38     10.61    12.14    13.91    
 15.89    18.14    20.73    23.56    26.70    30.09    33.87    37.87    42.21    46.60    
 51.09    55.73    60.32    64.98    69.52    74.08    78.58    82.93    87.22    91.27    
 95.21    99.17    103.36   107.57   112.01   117.38   123.73   131.30   139.83   149.62   
 137.67   
555361.19 558314.41 557320.11 552653.40 543054.49 525557.62 493167.89 443575.96 380260.21 311893.86 
 247055.94 190972.64 147173.98 113451.24 92086.80 70853.09 57406.86 46800.91 38563.79 32253.09 
 27284.60 23253.46 19914.62 16953.99 14474.40 12398.21 11043.34 9695.99  8872.55  8268.83  
 7790.28  7355.95  6988.80  6660.38  6371.93  6106.70  5857.31  5640.46  5429.73  5220.88  
 5031.59  4848.94  4650.00  4456.85  4258.58  4081.02  3903.30  3729.17  3557.47  3384.60  
 3223.76  3068.98  2914.67  2762.77  2624.06  2485.91  2353.36  2231.26  2105.28  1974.46  
 1857.18  1739.56  1624.41  1512.88  1409.38  1303.97  1204.14  1107.16  1010.21  919.90   
 835.56   754.07   673.70   600.03   533.02   470.82   411.47   357.78   310.35   268.88   
 231.65   198.26   168.78   143.84   118.63   93.42    68.22    53.64    41.90    31.66    
 23.44    18.00    13.33    9.09     5.01     3.05     2.85     2.88     2.96     3.05     
 3.16     3.25     3.36     3.47     3.60     3.71     3.82     3.96     4.11     4.28     
 4.45     4.63     4.83     5.04     5.26     5.48     5.73     5.99     6.26     6.55     
 6.84     7.15     7.48     7.80     8.14     8.49     8.85     9.21     9.56     9.92     
 10.28    10.65    11.04    11.45    11.87    12.34    12.85    13.46    14.22    15.13    
 16.21    17.50    19.10    21.13    23.65    26.73    30.53    35.15    40.78    48.04    
 57.00    67.20    78.66    91.07    104.23   118.54   134.76   151.21   167.41   182.86   
 198.35   213.49   226.82   238.63   250.42   259.02   265.57   270.20   272.54   272.43   
 270.15   266.04   259.93   252.27   242.85   232.00   219.92   206.55   192.38   178.11   
 137.67   
555361.19 558838.30 558563.83 554257.02 545408.23 528161.33 495916.72 444455.01 378485.64 307074.70 
 246113.43 185304.93 143092.26 108563.24 82161.65 61397.61 47373.62 38069.05 31111.47 26048.65 
 20988.67 16312.63 13375.85 11090.34 9167.99  7462.89  5966.01  4871.12  4217.06  3718.16  
 3293.71  2938.52  2583.33  2228.99  1980.00  1768.42  1575.38  1376.69  1197.32  1023.86  
 865.27   724.23   612.15   503.66   412.56   333.13   277.98   222.82   167.86   135.09   
 112.26   92.67    78.57    67.72    58.63    50.20    44.34    39.69    36.01    32.97    
 30.18    27.80    25.90    24.47    23.18    22.04    20.80    19.50    18.39    17.72    
 17.57    17.56    17.77    18.11    18.28    18.41    18.71    18.83    18.91    18.69    
 17.72    15.95    12.61    8.06     2.96     1.93     1.96     2.01     2.07     2.15     
 2.22     2.32     2.42     2.54     2.67     2.80     2.94     3.10     3.27     3.44     
 3.62     3.81     4.00     4.20     4.42     4.64     4.87     5.10     5.35     5.58     
 5.85     6.12     6.40     6.69     6.99     7.30     7.62     7.96     8.31     8.65     
 9.01     9.38     9.75     10.14    10.51    10.88    11.28    11.66    12.06    12.45    
 12.86    13.28    13.72    14.24    14.79    15.40    16.11    16.94    17.91    19.06    
 20.43    22.09    23.99    26.31    29.06    32.42    36.47    41.47    47.46    54.89    
 63.51    73.69    85.06    97.77    111.58   126.94   142.59   158.30   174.51   190.16   
 205.07   219.02   231.61   242.86   252.06   259.90   265.67   269.61   271.37   270.70   
 268.12   263.40   256.74   248.46   239.01   227.86   215.33   201.35   186.26   170.90   
 137.67   
555361.19 558380.63 557348.50 552053.99 541351.39 521417.27 473085.12 397277.86 309166.56 238156.16 
 176567.55 124620.15 93508.66 69347.94 45260.63 34703.92 28431.86 20506.31 14018.11 11438.27 
 8366.23  5287.72  4113.89  1827.55  1426.44  1046.18  665.92   504.12   389.77   290.25   
 221.04   184.37   157.41   137.29   121.37   105.49   89.62    78.95    70.27    62.15    
 55.31    48.99    43.84    39.81    36.20    32.98    30.49    27.86    25.69    23.37    
 21.05    18.28    15.73    13.37    11.86    10.81    9.95     9.35     8.93     8.61     
 8.37     8.18     7.93     7.70     7.53     7.45     7.33     7.17     7.06     6.95     
 6.88     6.76     6.57     6.43     6.26     5.98     5.56     5.08     4.60     4.07     
 3.45     2.82     2.45     2.35     2.34     2.38     2.45     2.53     2.62     2.72     
 2.82     2.94     3.09     3.24     3.42     3.61     3.81     4.01     4.23     4.45     
 4.68     4.92     5.17     5.44     5.70     5.98     6.26     6.55     6.85     7.16     
 7.47     7.79     8.13     8.47     8.83     9.20     9.56     9.94     10.33    10.72    
 11.11    11.51    11.91    12.33    12.75    13.16    13.60    14.05    14.51    14.98    
 15.48    16.00    16.60    17.27    18.00    18.82    19.78    20.86    22.11    23.55    
 25.18    27.01    29.17    31.80    34.96    38.69    43.18    48.42    54.67    62.45    
 71.98    82.90    95.22    108.42   122.50   137.61   154.73   171.82   188.15   203.43   
 218.50   232.12   245.73   255.08   263.01   268.39   271.76   273.30   272.71   270.69   
 266.54   260.91   253.67   245.06   234.99   223.11   209.78   195.03   179.22   163.40   
 137.67   
555361.19 558159.63 557005.21 551517.52 538648.37 480028.79 406313.13 336253.07 260469.61 184753.89 
 118047.07 84686.12 61931.55 37436.97 26384.95 15398.92 11543.13 6595.56  1693.47  1345.39  
 1029.36  749.96   550.11   414.46   329.71   244.96   160.59   119.14   96.65    81.47    
 70.59    61.74    54.67    49.71    45.44    41.66    38.23    34.46    31.42    28.67    
 25.91    22.98    20.12    17.41    15.33    13.61    12.45    11.38    10.54    9.91     
 9.38     8.85     8.25     7.70     7.23     6.82     6.44     6.15     5.88     5.58     
 5.34     5.11     4.92     4.74     4.57     4.42     4.21     4.07     3.95     3.87     
 3.76     3.63     3.48     3.33     3.20     3.06     2.93     2.80     2.69     2.57     
 2.51     2.52     2.53     2.56     2.61     2.67     2.74     2.81     2.89     2.97     
 3.07     3.17     3.28     3.41     3.56     3.72     3.89     4.08     4.27     4.48     
 4.71     4.93     5.18     5.43     5.69     5.97     6.27     6.57     6.89     7.21     
 7.55     7.92     8.28     8.65     9.03     9.42     9.83     10.24    10.66    11.07    
 11.50    11.95    12.41    12.87    13.35    13.85    14.35    14.87    15.42    15.98    
 16.61    17.27    18.01    18.82    19.73    20.78    21.91    23.19    24.60    26.22    
 28.07    30.17    32.51    35.25    38.41    42.17    46.64    52.01    58.43    66.43    
 75.70    86.68    99.11    114.24   129.38   145.92   163.71   181.51   199.64   217.03   
 233.07   247.40   259.48   269.28   276.26   280.80   282.65   281.93   278.74   273.64   
 267.10   259.40   251.12   241.28   230.04   217.54   203.43   187.98   171.54   155.34   
 137.67   
555361.19 557143.57 554915.78 548032.35 494884.88 424136.39 352235.52 269854.43 183564.58 128175.01 
 90864.18 53760.03 28089.33 18172.85 12511.33 6893.40  1275.46  866.25   523.35   453.02   
 344.75   265.63   207.98   173.18   145.43   117.88   90.33    80.33    72.08    61.75    
 51.14    42.82    36.42    32.64    29.32    25.62    22.15    18.92    16.44    14.98    
 14.01    13.27    12.46    11.93    11.54    11.19    10.47    10.09    9.61     8.92     
 8.17     7.44     6.62     5.85     5.41     5.26     5.11     4.95     4.79     4.59     
 4.41     4.23     4.04     3.87     3.71     3.56     3.43     3.30     3.16     3.04     
 2.94     2.85     2.76     2.70     2.63     2.58     2.53     2.48     2.46     2.44     
 2.44     2.44     2.47     2.51     2.57     2.64     2.72     2.79     2.87     2.97     
 3.07     3.18     3.30     3.43     3.58     3.75     3.92     4.11     4.30     4.52     
 4.74     4.97     5.22     5.48     5.76     6.05     6.37     6.70     7.05     7.41     
 7.78     8.17     8.58     9.00     9.44     9.88     10.34    10.80    11.29    11.78    
 12.27    12.77    13.28    13.82    14.37    14.94    15.54    16.15    16.78    17.42    
 18.12    18.89    19.74    20.68    21.70    22.81    24.09    25.58    27.21    29.03    
 31.03    33.25    35.71    38.65    42.13    46.14    50.82    56.44    63.09    71.31    
 81.77    93.79    107.40   122.31   138.07   155.25   174.47   194.06   212.91   231.32   
 249.73   264.80   276.62   285.22   290.94   293.37   292.89   289.83   284.47   277.58   
 268.65   258.58   247.38   236.16   224.18   210.68   196.48   180.90   165.00   148.41   
 137.67   
555361.19 556289.82 554016.13 546281.88 484611.47 406943.94 327279.16 241019.65 155046.13 107226.54 
 63770.08 47974.76 32179.44 16384.12 729.77   752.18   582.28   421.06   285.56   214.83   
 144.14   76.94    49.82    34.66    27.72    23.12    20.05    17.90    16.43    15.57    
 15.03    14.39    13.44    12.15    10.37    8.83     7.91     7.17     6.49     6.01     
 5.69     5.52     5.46     5.39     5.24     5.12     4.96     4.81     4.66     4.44     
 4.24     4.16     4.01     3.84     3.72     3.61     3.48     3.33     3.23     3.16     
 3.10     3.05     3.00     2.94     2.89     2.84     2.78     2.72     2.68     2.63     
 2.59     2.53     2.49     2.46     2.42     2.38     2.37     2.37     2.37     2.38     
 2.39     2.41     2.43     2.46     2.50     2.54     2.59     2.64     2.70     2.78     
 2.85     2.92     3.01     3.12     3.25     3.38     3.53     3.69     3.87     4.07     
 4.30     4.53     4.80     5.09     5.40     5.71     6.06     6.44     6.82     7.23     
 7.65     8.10     8.56     9.02     9.52     10.01    10.52    11.06    11.59    12.11    
 12.64    13.23    13.82    14.43    15.04    15.69    16.37    17.09    17.81    18.57    
 19.36    20.20    21.11    22.08    23.14    24.29    25.55    26.96    28.49    30.17    
 32.10    34.31    36.74    39.60    42.84    46.78    51.37    57.02    63.92    72.67    
 83.15    95.83    109.97   126.65   144.54   162.79   182.33   201.62   221.33   240.47   
 258.48   274.57   287.74   297.38   302.91   304.92   303.59   299.14   292.53   284.18   
 274.66   263.70   251.89   239.29   226.52   213.26   199.10   184.49   168.55   152.25   
 137.67   
555361.19 554760.79 550851.37 540084.91 467365.06 387318.31 303169.69 207673.77 140659.00 102533.19 
 64747.60 26962.00 13681.37 674.49   375.60   212.34   49.07    35.03    26.87    21.40    
 18.15    15.84    14.00    12.49    11.52    10.47    9.45     9.12     8.87     9.43     
 9.84     9.35     8.37     7.42     7.05     6.82     6.77     6.47     6.42     6.11     
 5.85     5.69     5.56     5.23     5.01     4.95     4.91     4.74     4.51     4.29     
 4.22     4.15     4.18     4.08     4.05     4.03     3.88     3.79     3.74     3.68     
 3.54     3.48     3.45     3.39     3.30     3.21     3.16     3.13     3.10     3.07     
 3.05     3.03     3.01     2.98     2.95     2.93     2.91     2.91     2.91     2.91     
 2.91     2.94     3.05     3.22     3.34     3.43     3.53     3.59     3.63     3.67     
 3.72     3.79     3.80     3.82     3.87     3.95     4.03     4.16     4.31     4.49     
 4.71     4.96     5.24     5.55     5.90     6.26     6.65     7.09     7.52     7.96     
 8.38     8.79     9.19     9.57     9.99     10.44    10.91    11.40    11.94    12.51    
 13.12    13.73    14.40    15.08    15.80    16.53    17.35    18.19    19.07    19.96    
 20.89    21.87    22.89    23.94    25.00    26.09    27.27    28.57    29.99    31.58    
 33.29    35.31    37.68    40.53    43.94    47.96    52.78    58.87    66.48    75.81    
 87.47    101.12   117.02   134.26   152.74   171.85   191.52   211.36   231.12   250.88   
 268.16   284.08   296.64   305.47   310.04   310.70   307.87   302.17   294.20   285.00   
 274.71   263.55   251.65   239.34   226.79   213.71   200.20   186.21   171.62   155.43   
 137.67   
