IESNA:LM-63-2002
[TEST] 1
[TESTLAB] AOK
[TESTDATE] 2022-05-23
[ISSUEDATE] 2022-05-23 16:18:49
[NEARFIELD] 
[LAMPPOSITION] 0,0
[OTHER] EVERFINE GO-2000A_V1 SYSTEM
[MANUFAC] AOK
[LUMCAT] A
[LUMINAIRE] AOK-400WiSF-NV-S35-00-5070-15D-P
[LAMPCAT] B
[LAMP] 5050
[BALLAST] E
[BALLASTCAT] F
[OTHER] 
[OTHER] Gamma(deg)    Fz(lm)      Ft(lm)     %Lum    %Lamp
[OTHER]   0- 10     23203.58    23203.58    46.57    46.57
[OTHER]  10- 20     12026.40    35229.98    70.71    70.71
[OTHER]  20- 30      4533.17    39763.15    79.80    79.80
[OTHER]  30- 40      2888.63    42651.79    85.60    85.60
[OTHER]  40- 50      2319.77    44971.55    90.26    90.26
[OTHER]  50- 60      1945.00    46916.55    94.16    94.16
[OTHER]  60- 70      1396.37    48312.92    96.96    96.96
[OTHER]  70- 80       700.82    49013.74    98.37    98.37
[OTHER]  80- 90       272.03    49285.78    98.92    98.92
[OTHER]  90-100       140.42    49426.20    99.20    99.20
[OTHER] 100-110        99.66    49525.86    99.40    99.40
[OTHER] 110-120        81.67    49607.53    99.56    99.56
[OTHER] 120-130        62.07    49669.60    99.69    99.69
[OTHER] 130-140        43.57    49713.17    99.77    99.77
[OTHER] 140-150        31.63    49744.79    99.84    99.84
[OTHER] 150-160        35.66    49780.45    99.91    99.91
[OTHER] 160-170        33.78    49814.23    99.98    99.98
[OTHER] 170-180        11.56    49825.79   100.00   100.00
[OTHER] 
TILT=NONE
1 49826 1 181 25 1 2 0.150 0.200 0.000
1.000 1 391.251
0.0    1.0    2.0    3.0    4.0    5.0    6.0    7.0    8.0    9.0    
 10.0   11.0   12.0   13.0   14.0   15.0   16.0   17.0   18.0   19.0   
 20.0   21.0   22.0   23.0   24.0   25.0   26.0   27.0   28.0   29.0   
 30.0   31.0   32.0   33.0   34.0   35.0   36.0   37.0   38.0   39.0   
 40.0   41.0   42.0   43.0   44.0   45.0   46.0   47.0   48.0   49.0   
 50.0   51.0   52.0   53.0   54.0   55.0   56.0   57.0   58.0   59.0   
 60.0   61.0   62.0   63.0   64.0   65.0   66.0   67.0   68.0   69.0   
 70.0   71.0   72.0   73.0   74.0   75.0   76.0   77.0   78.0   79.0   
 80.0   81.0   82.0   83.0   84.0   85.0   86.0   87.0   88.0   89.0   
 90.0   91.0   92.0   93.0   94.0   95.0   96.0   97.0   98.0   99.0   
 100.0  101.0  102.0  103.0  104.0  105.0  106.0  107.0  108.0  109.0  
 110.0  111.0  112.0  113.0  114.0  115.0  116.0  117.0  118.0  119.0  
 120.0  121.0  122.0  123.0  124.0  125.0  126.0  127.0  128.0  129.0  
 130.0  131.0  132.0  133.0  134.0  135.0  136.0  137.0  138.0  139.0  
 140.0  141.0  142.0  143.0  144.0  145.0  146.0  147.0  148.0  149.0  
 150.0  151.0  152.0  153.0  154.0  155.0  156.0  157.0  158.0  159.0  
 160.0  161.0  162.0  163.0  164.0  165.0  166.0  167.0  168.0  169.0  
 170.0  171.0  172.0  173.0  174.0  175.0  176.0  177.0  178.0  179.0  
 180.0  
0.0    15.0   30.0   45.0   60.0   75.0   90.0   105.0  120.0  135.0  
 150.0  165.0  180.0  195.0  210.0  225.0  240.0  255.0  270.0  285.0  
 300.0  315.0  330.0  345.0  360.0  
364553.25 364332.14 363223.89 360842.15 356274.01 307594.97 259874.23 216114.19 163884.34 116442.44 
 82691.40 49099.45 26227.08 6800.75  502.17   307.12   174.23   41.33    28.65    21.79    
 18.71    15.81    13.59    11.97    10.70    9.56     8.51     7.69     7.09     6.90     
 7.23     7.53     7.62     7.27     6.86     6.47     5.82     5.40     5.18     5.09     
 5.13     4.84     4.56     4.16     3.86     3.47     3.33     3.25     3.08     2.93     
 2.68     2.55     2.50     2.50     2.45     2.44     2.43     2.43     2.38     2.33     
 2.33     2.32     2.32     2.31     2.31     2.31     2.31     2.31     2.30     2.30     
 2.29     2.29     2.29     2.29     2.29     2.31     2.31     2.31     2.31     2.31     
 2.31     2.31     2.34     2.40     2.51     2.68     2.82     2.95     3.03     3.09     
 3.16     3.22     3.34     3.43     3.47     3.52     3.60     3.70     3.82     3.98     
 4.17     4.37     4.59     4.84     5.12     5.41     5.70     6.02     6.32     6.62     
 6.90     7.17     7.43     7.68     7.94     8.20     8.49     8.81     9.16     9.54     
 9.93     10.35    10.79    11.25    11.74    12.24    12.78    13.39    14.00    14.67    
 15.35    16.05    16.79    17.58    18.42    19.32    20.29    21.35    22.51    23.82    
 25.29    26.94    28.85    31.02    33.45    36.34    39.77    43.64    48.14    53.60    
 60.50    68.49    77.69    87.81    98.95    111.15   123.51   135.98   148.78   161.24   
 173.08   184.60   195.16   203.89   210.43   214.58   216.19   215.55   212.83   208.32   
 202.55   195.81   188.41   180.58   172.42   163.94   155.46   146.63   137.46   127.64   
 115.49   
364553.25 364421.17 362855.88 360478.02 355591.15 323464.46 274427.93 225391.38 176294.89 119396.68 
 86842.42 51222.00 38613.75 26005.51 13397.26 903.27   773.25   553.12   333.00   114.30   
 88.38    85.43    74.96    50.35    63.68    60.57    33.95    20.09    14.24    11.13    
 8.94     7.70     7.09     6.59     5.88     4.66     4.25     4.17     4.07     3.98     
 3.81     3.86     4.28     4.31     4.30     4.28     4.12     4.06     3.90     3.79     
 3.63     3.54     3.42     3.32     3.29     3.24     3.18     3.10     3.04     2.97     
 2.87     2.74     2.66     2.57     2.51     2.44     2.39     2.31     2.24     2.17     
 2.13     2.08     2.03     2.00     1.97     1.93     1.91     1.91     1.91     1.91     
 1.92     1.93     1.96     2.00     2.05     2.11     2.20     2.27     2.36     2.46     
 2.55     2.66     2.76     2.87     2.98     3.11     3.24     3.38     3.54     3.72     
 3.91     4.12     4.34     4.57     4.82     5.08     5.35     5.62     5.91     6.20     
 6.49     6.79     7.10     7.39     7.68     7.99     8.32     8.68     9.06     9.44     
 9.84     10.27    10.75    11.24    11.73    12.25    12.80    13.39    14.00    14.64    
 15.32    16.02    16.76    17.54    18.36    19.25    20.27    21.37    22.53    23.83    
 25.33    27.00    28.87    31.01    33.46    36.35    39.59    43.43    47.96    53.58    
 60.16    68.12    77.14    87.43    98.67    110.58   123.05   135.44   148.16   160.74   
 172.78   184.44   194.90   203.75   210.30   214.46   216.05   215.45   212.78   208.41   
 202.89   196.35   189.12   181.40   173.37   165.29   156.78   148.04   137.69   126.25   
 115.49   
364553.25 364089.33 361750.70 358719.39 352634.12 340021.11 285065.32 230679.50 178400.85 128281.10 
 94149.82 60204.82 36306.63 26553.50 15621.53 8446.35  1310.47  953.92   683.69   513.38   
 361.31   190.74   153.22   117.24   81.26    71.46    59.27    48.36    42.14    36.26    
 31.78    26.78    22.60    20.23    18.53    16.63    14.67    12.58    10.31    9.65     
 9.45     9.46     8.95     8.41     8.05     7.87     7.09     6.57     6.28     5.89     
 5.42     5.06     4.59     3.98     3.61     3.48     3.34     3.20     3.01     2.83     
 2.68     2.54     2.41     2.32     2.25     2.18     2.12     2.06     2.02     1.98     
 1.94     1.92     1.90     1.88     1.87     1.85     1.84     1.83     1.81     1.81     
 1.80     1.80     1.82     1.88     1.94     2.01     2.09     2.18     2.28     2.38     
 2.49     2.62     2.75     2.89     3.05     3.20     3.37     3.53     3.70     3.88     
 4.07     4.25     4.44     4.64     4.85     5.07     5.29     5.52     5.77     6.03     
 6.31     6.60     6.89     7.19     7.50     7.82     8.16     8.51     8.87     9.25     
 9.63     10.03    10.47    10.91    11.36    11.82    12.31    12.83    13.40    14.01    
 14.64    15.32    16.04    16.86    17.76    18.71    19.77    20.93    22.22    23.66    
 25.25    27.03    29.10    31.39    33.95    36.91    40.38    44.52    49.41    55.25    
 62.30    70.36    79.42    89.73    101.06   112.90   125.00   137.82   150.58   163.33   
 175.57   186.70   196.45   204.27   209.97   213.41   214.61   213.60   210.90   206.58   
 200.99   194.42   187.22   179.59   171.57   163.41   154.44   144.81   134.28   123.16   
 115.49   
364553.25 363857.31 361244.06 356939.03 349534.47 332530.70 305525.70 248003.52 190555.31 143017.70 
 102507.48 74760.46 49242.94 35743.04 26226.31 16768.71 13691.83 8822.85  6173.94  3525.03  
 894.80   694.07   452.89   357.92   262.95   168.40   121.01   91.44    70.64    57.84    
 49.31    42.34    36.83    32.52    29.27    26.49    23.97    21.86    19.99    18.32    
 16.82    15.31    13.56    11.27    9.58     8.87     8.53     8.12     7.73     7.34     
 6.92     6.49     6.06     5.62     5.22     4.88     4.63     4.41     4.20     4.01     
 3.82     3.64     3.47     3.32     3.19     3.08     2.96     2.85     2.74     2.63     
 2.50     2.39     2.28     2.17     2.08     2.00     1.92     1.86     1.80     1.76     
 1.71     1.70     1.70     1.74     1.79     1.87     1.95     2.04     2.14     2.24     
 2.36     2.48     2.61     2.75     2.90     3.04     3.20     3.36     3.53     3.71     
 3.89     4.07     4.27     4.47     4.69     4.91     5.13     5.37     5.60     5.85     
 6.10     6.38     6.66     6.92     7.22     7.52     7.82     8.14     8.46     8.78     
 9.12     9.47     9.83     10.21    10.59    10.99    11.43    11.91    12.40    12.92    
 13.48    14.08    14.74    15.46    16.26    17.14    18.17    19.28    20.48    21.84    
 23.45    25.22    27.19    29.50    32.11    35.21    38.81    43.12    48.17    54.30    
 61.34    69.56    78.52    88.78    99.92    111.68   124.31   136.83   149.70   161.99   
 173.68   184.19   193.18   200.61   205.88   209.14   210.36   209.66   207.14   203.06   
 198.64   192.98   185.96   177.69   169.33   161.42   152.90   143.68   133.65   123.58   
 115.49   
364553.25 363251.71 359873.99 353188.76 339381.88 315547.86 281712.73 242260.29 198194.85 156327.26 
 116700.75 88780.15 60992.94 47277.19 35993.12 28827.66 22907.98 16088.60 12826.40 10394.50 
 7972.21  5549.92  4520.10  2939.28  2243.07  1449.21  964.53   483.10   383.72   277.16   
 197.43   144.50   116.77   89.33    75.35    63.78    54.37    46.91    40.52    35.45    
 31.09    27.25    24.26    21.76    19.69    17.87    16.23    14.91    13.76    12.54    
 11.38    10.16    8.64     7.21     6.67     6.41     6.16     5.94     5.71     5.50     
 5.30     5.12     4.95     4.79     4.65     4.52     4.39     4.29     4.19     4.12     
 4.03     3.94     3.83     3.70     3.56     3.41     3.23     3.04     2.85     2.63     
 2.44     2.16     1.97     1.93     1.93     1.99     2.07     2.15     2.25     2.35     
 2.46     2.59     2.71     2.85     2.99     3.14     3.31     3.46     3.64     3.82     
 4.01     4.21     4.42     4.63     4.84     5.08     5.30     5.54     5.78     6.04     
 6.29     6.55     6.82     7.09     7.37     7.65     7.94     8.24     8.54     8.86     
 9.18     9.50     9.82     10.17    10.51    10.86    11.22    11.60    12.01    12.45    
 12.91    13.42    13.93    14.52    15.23    16.03    16.94    17.94    19.05    20.34    
 21.83    23.59    25.70    28.04    30.86    34.12    37.96    42.57    48.32    54.98    
 62.52    70.91    80.17    90.69    102.05   113.72   125.61   137.76   149.76   161.14   
 171.81   181.27   189.53   196.17   201.24   204.50   206.00   205.71   204.79   201.01   
 196.01   190.15   183.53   176.18   167.92   160.22   152.55   143.89   134.83   125.73   
 115.49   
364553.25 362975.40 359183.78 351507.66 334891.39 306904.35 266227.97 225551.58 184883.07 145324.61 
 113538.90 89586.79 71225.49 58019.35 47719.15 39528.27 32959.29 28365.91 23772.52 19183.64 
 15207.42 12134.50 9954.50  8329.58  6840.31  5575.00  4617.82  3951.41  3480.12  3062.98  
 2687.23  2312.06  2014.14  1751.85  1519.45  1304.03  1111.48  948.65   798.59   660.23   
 538.90   428.44   334.20   278.80   223.40   168.14   130.60   99.75    78.99    62.71    
 50.26    41.59    35.29    30.30    26.67    23.47    20.95    19.00    17.19    15.80    
 14.66    13.76    12.91    12.19    11.38    10.47    9.67     8.89     8.72     8.62     
 8.53     8.46     8.33     8.21     8.09     8.00     7.87     7.71     7.51     7.13     
 6.54     5.70     4.63     2.77     1.62     1.64     1.69     1.76     1.83     1.91     
 1.99     2.08     2.19     2.29     2.42     2.54     2.68     2.81     2.97     3.13     
 3.29     3.47     3.64     3.82     4.01     4.21     4.42     4.64     4.86     5.10     
 5.34     5.59     5.85     6.12     6.38     6.66     6.95     7.24     7.53     7.82     
 8.12     8.43     8.76     9.07     9.38     9.70     10.04    10.38    10.74    11.11    
 11.48    11.88    12.32    12.84    13.38    13.97    14.68    15.51    16.44    17.58    
 18.93    20.54    22.38    24.68    27.43    30.85    34.88    39.81    45.49    52.39    
 60.05    68.78    78.19    88.41    99.34    110.63   122.24   133.57   145.00   155.72   
 165.59   174.68   182.48   189.33   194.70   198.81   201.43   203.63   203.16   201.26   
 198.05   193.82   188.46   182.24   174.47   166.98   159.52   150.95   141.88   132.50   
 115.49   
364553.25 363293.55 359708.33 352324.03 336301.54 308396.82 267261.94 226127.02 185003.79 145095.09 
 112973.68 89551.52 72213.92 59361.66 49094.52 40680.89 33768.44 28473.16 24624.10 20783.44 
 17769.90 15206.55 13029.48 11159.22 9552.40  8253.83  7274.31  6584.21  6105.32  5731.30  
 5399.95  5104.32  4837.56  4584.80  4335.95  4115.14  3906.98  3723.42  3564.17  3405.84  
 3256.72  3112.32  2962.12  2830.26  2696.95  2563.63  2430.32  2296.89  2164.22  2041.33  
 1929.20  1820.59  1718.42  1620.53  1525.14  1436.00  1344.99  1259.08  1172.79  1086.80  
 1005.22  925.29   851.62   777.04   706.03   637.82   571.55   506.74   445.69   391.02   
 338.76   290.41   249.88   209.43   175.68   146.58   122.15   102.07   85.94    72.01    
 60.09    52.33    43.56    36.10    28.13    1.35     1.55     0.96     0.84     0.80     
 0.76     0.73     0.73     0.74     0.76     0.77     0.78     0.79     0.81     0.83     
 0.84     0.86     0.89     0.90     0.93     0.95     0.99     1.02     1.06     1.09     
 1.13     1.17     1.21     1.25     1.30     1.34     1.39     1.43     1.47     1.51     
 1.56     1.62     1.67     1.71     1.77     1.83     1.89     1.96     2.03     2.09     
 2.17     2.25     2.35     2.45     2.57     2.70     2.85     3.04     3.25     3.49     
 3.78     4.14     4.57     5.12     5.74     6.49     7.35     8.30     9.35     10.57    
 11.89    13.27    14.77    16.44    18.23    20.13    22.17    24.33    26.56    28.79    
 31.05    33.34    35.61    37.94    40.29    42.73    45.20    47.76    51.40    54.08    
 56.90    60.02    63.56    67.80    71.90    77.75    84.94    92.58    100.91   110.22   
 115.49   
364553.25 362777.37 358575.76 349929.27 332237.13 303328.79 263534.41 219570.94 176791.41 140021.51 
 117774.08 95654.94 73535.81 61520.27 51825.36 44162.07 37937.30 32959.05 28797.04 25159.21 
 21865.34 18980.81 16336.60 14092.98 12077.69 10681.79 9290.78  8378.86  7693.70  7184.94  
 6785.37  6439.59  6142.66  5906.95  5689.78  5513.16  5365.30  5218.06  5082.80  4953.26  
 4835.75  4727.96  4611.46  4479.29  4348.58  4217.48  4083.98  3951.66  3822.55  3699.87  
 3592.75  3485.85  3382.94  3281.28  3178.03  3079.56  2981.93  2881.11  2782.66  2681.04  
 2579.78  2479.21  2378.76  2273.92  2169.44  2064.96  1965.28  1863.25  1755.59  1647.48  
 1540.58  1436.08  1329.49  1223.00  1121.75  1020.55  929.73   843.09   762.35   686.00   
 616.07   552.01   492.47   439.41   394.17   354.33   322.34   295.54   276.01   257.89   
 240.21   221.63   204.16   188.69   174.48   160.92   149.47   139.60   130.21   121.37   
 112.53   105.50   99.36    93.60    88.40    83.47    79.01    74.69    71.20    67.61    
 63.89    60.63    57.59    54.10    50.93    47.83    44.88    41.85    38.97    36.07    
 33.51    30.96    28.39    25.80    23.22    20.40    17.39    14.48    11.63    9.11     
 6.09     4.48     3.29     2.23     1.82     1.79     1.88     2.00     2.15     2.33     
 2.56     2.83     3.19     3.63     4.18     4.80     5.55     6.42     7.39     8.49     
 9.69     10.99    12.37    13.91    15.54    17.21    19.00    20.83    22.70    24.61    
 26.55    28.53    30.55    32.58    34.63    36.76    38.97    41.27    43.75    47.10    
 50.13    53.17    56.76    60.95    65.26    71.28    78.97    87.33    96.52    106.87   
 115.49   
364553.25 362895.20 358947.74 351005.89 334708.01 307376.22 265853.47 224330.69 182853.70 145914.96 
 117862.22 97454.71 81430.30 68836.06 58936.17 51382.52 45348.05 40095.06 35736.66 32192.74 
 28604.68 25482.21 22364.36 19668.32 17196.21 15158.26 13418.51 11912.87 10617.23 9546.88  
 8650.30  7918.99  7343.03  6922.92  6632.34  6400.02  6204.66  6033.49  5884.03  5750.23  
 5625.59  5500.86  5373.48  5253.68  5133.57  5022.12  4899.45  4772.40  4646.11  4517.53  
 4396.14  4276.76  4158.20  4041.90  3921.79  3809.60  3692.62  3575.16  3450.87  3321.77  
 3190.25  3056.69  2919.23  2789.39  2662.12  2534.85  2407.60  2281.27  2151.51  2017.95  
 1882.70  1746.09  1621.53  1503.17  1382.93  1263.24  1141.15  1034.03  933.06   839.23   
 751.30   668.19   596.85   534.32   479.66   433.16   397.63   369.06   344.88   326.03   
 307.35   287.78   269.56   253.51   238.93   224.38   213.11   202.61   192.70   184.10   
 176.56   169.67   163.39   157.48   152.14   147.17   143.09   138.85   134.99   131.45   
 128.31   125.07   121.91   119.12   116.50   113.64   111.01   108.43   105.98   103.47   
 101.01   98.65    96.39    94.13    91.85    89.42    86.94    84.43    81.79    79.15    
 76.33    73.81    71.28    68.37    65.69    62.92    59.69    56.37    53.50    50.49    
 47.05    43.86    40.77    37.91    34.96    31.23    19.16    9.71     7.63     7.02     
 7.84     9.17     10.60    12.18    13.85    15.64    17.54    19.52    21.61    23.69    
 25.77    27.85    29.96    32.06    34.10    36.10    38.07    40.04    42.00    44.15    
 46.48    49.65    53.04    57.18    61.47    67.37    74.98    83.57    93.37    104.09   
 115.49   
364553.25 362657.59 358530.36 350430.62 334230.35 307083.32 267863.60 223314.65 180966.33 146459.34 
 119569.23 101827.14 84163.30 72335.27 63154.76 55627.08 49898.58 45169.38 40820.74 36811.05 
 32982.11 29545.59 26294.19 23332.66 20697.49 18483.80 16530.34 14824.64 13285.70 11921.95 
 10738.47 9556.69  8656.64  7977.25  7494.34  7145.63  6875.71  6634.46  6410.86  6213.58  
 6050.13  5889.82  5747.54  5625.03  5505.89  5380.79  5257.63  5144.90  5039.87  4927.28  
 4808.55  4675.86  4546.62  4424.63  4302.70  4167.56  4030.70  3882.22  3732.45  3583.86  
 3437.29  3293.93  3145.40  3004.42  2868.31  2727.45  2588.15  2444.45  2294.72  2146.13  
 1999.55  1862.21  1725.71  1580.45  1443.10  1315.03  1192.64  1076.60  960.61   860.63   
 773.11   689.92   615.09   549.65   498.91   457.39   421.31   389.41   363.88   345.12   
 326.74   306.80   288.01   272.08   258.58   247.21   237.63   229.36   222.26   216.04   
 210.00   204.69   199.77   195.68   191.72   188.07   185.03   182.24   179.59   177.11   
 175.02   172.98   171.07   169.11   167.37   165.50   163.67   161.77   159.64   157.25   
 155.16   152.95   150.77   148.51   146.38   144.25   141.82   139.39   136.92   134.35   
 131.70   128.71   125.27   121.84   118.73   115.37   112.03   108.38   104.96   101.22   
 97.10    93.20    89.34    85.53    81.70    78.59    74.89    69.77    64.93    62.96    
 59.35    56.19    51.62    48.88    45.04    23.17    20.42    20.76    22.13    23.45    
 25.51    27.99    30.59    33.29    35.95    38.31    40.36    42.37    44.14    45.75    
 47.24    48.83    50.88    53.63    57.39    62.91    70.30    79.54    89.74    100.79   
 115.49   
364553.25 362899.84 359519.29 353261.93 340155.49 314239.54 271526.99 228814.38 186175.00 150728.95 
 123383.11 103482.37 88423.36 76208.18 66097.93 58211.86 51980.86 46577.30 41902.03 37584.19 
 33620.87 30003.25 27012.80 24022.36 21040.87 18843.33 16968.45 15313.82 13890.88 12689.54 
 11667.03 10748.62 10039.51 9510.40  9075.64  8649.42  8272.01  7903.49  7578.94  7294.30  
 7042.91  6803.99  6590.51  6388.05  6206.47  6035.38  5873.53  5717.22  5555.58  5382.50  
 5220.69  5066.42  4909.69  4747.84  4587.65  4436.68  4289.74  4145.26  4006.77  3868.38  
 3737.93  3604.06  3451.73  3290.56  3124.28  2959.03  2783.49  2616.26  2449.03  2280.95  
 2117.91  1959.99  1803.22  1658.96  1509.77  1377.51  1245.55  1123.90  1011.94  910.10   
 817.02   730.70   652.79   592.39   541.72   498.84   461.93   427.30   402.58   383.41   
 364.40   343.46   323.77   304.73   289.34   276.94   267.79   260.38   254.63   250.29   
 246.47   243.26   240.78   237.90   235.04   233.94   233.02   232.15   231.66   231.40   
 231.36   231.47   231.49   231.57   231.25   230.82   229.86   228.26   226.18   223.57   
 219.91   215.57   211.05   206.51   201.95   197.31   192.89   188.88   184.82   180.85   
 177.09   173.41   169.41   165.43   161.33   157.24   152.88   148.11   143.52   138.64   
 132.92   127.24   121.91   115.87   111.16   106.51   102.26   98.61    95.47    92.76    
 90.62    86.22    80.74    77.96    75.69    72.95    69.48    65.02    61.96    39.67    
 27.90    29.69    31.40    33.95    36.98    40.08    42.93    45.60    47.66    49.35    
 50.76    51.90    53.06    54.62    57.19    61.22    67.41    75.84    86.30    97.54    
 115.49   
364553.25 362812.62 359592.90 353946.66 340956.29 313332.18 270987.83 223322.88 181299.79 146723.01 
 120676.16 103477.13 86353.72 74546.27 65111.71 57210.79 50775.47 45371.55 40917.47 36681.79 
 32961.62 29554.37 26470.00 23692.80 21428.26 19579.22 18136.98 16989.83 16039.10 15204.79 
 14438.74 13728.63 13066.43 12440.24 11778.77 11198.93 10619.77 10017.38 9477.26  8987.74  
 8561.97  8181.25  7824.99  7495.77  7184.83  6876.06  6604.17  6335.80  6092.71  5869.48  
 5669.41  5468.96  5318.54  5199.84  5081.83  4981.85  4904.86  4814.85  4696.27  4515.70  
 4284.51  4101.18  3896.10  3710.01  3506.49  3293.59  3097.43  2874.58  2653.90  2452.08  
 2261.65  2088.14  1912.84  1746.25  1594.15  1454.20  1323.58  1192.65  1083.12  973.78   
 879.41   793.28   719.87   658.64   607.02   562.83   521.47   485.22   460.32   438.92   
 417.60   393.56   370.58   348.64   331.16   315.66   303.40   294.79   288.20   283.49   
 280.30   278.59   277.76   277.49   277.75   278.48   279.91   280.66   280.88   281.27   
 282.18   283.39   284.87   286.26   287.48   287.88   287.41   285.86   283.21   279.14   
 274.14   268.45   261.45   254.49   246.88   239.44   232.09   224.99   218.35   211.99   
 205.81   200.20   195.10   190.10   185.26   180.00   168.01   160.40   156.11   152.32   
 147.56   142.51   138.41   134.19   129.67   124.22   118.77   113.28   108.19   105.52   
 102.42   100.46   98.57    97.17    92.19    88.61    87.30    85.28    83.76    74.98    
 72.25    39.70    34.64    37.44    40.30    43.37    46.48    49.46    52.09    54.14    
 55.35    56.35    57.09    57.92    59.62    63.08    69.00    78.05    89.08    101.08   
 115.49   
364553.25 363104.51 360607.57 356137.90 344860.92 318536.59 274615.38 230694.21 186842.31 149815.85 
 122184.29 103040.88 87482.85 75361.63 65423.04 57338.17 50646.01 45357.02 40735.07 36832.04 
 33258.60 30126.89 27333.99 25206.54 23086.97 21659.86 20747.46 20096.70 19667.55 19196.59 
 18639.44 17939.08 17123.07 16194.98 15262.33 14315.82 13381.14 12468.30 11644.35 10901.26 
 10236.83 9633.97  9113.99  8676.86  8278.30  7931.43  7592.61  7257.62  6943.05  6632.32  
 6374.83  6159.00  5984.25  5870.79  6058.33  6427.58  6616.01  6910.20  6932.47  6641.13  
 6263.57  5763.01  5300.52  4880.32  4518.45  4065.67  3738.91  3334.77  2990.46  2737.19  
 2484.44  2276.63  2086.49  1916.57  1753.88  1598.88  1456.64  1317.84  1194.51  1080.53  
 978.25   882.65   802.34   734.18   675.40   622.87   575.73   533.58   503.45   477.66   
 453.90   427.70   401.59   376.52   355.87   337.93   323.43   312.35   303.10   297.02   
 293.12   291.00   289.97   289.71   289.93   290.51   291.68   293.01   292.52   291.08   
 288.77   286.87   285.56   284.34   282.72   280.89   278.57   275.56   272.07   267.62   
 262.19   256.44   250.33   243.66   236.99   230.33   224.39   218.68   213.18   207.97   
 202.90   198.08   193.21   188.25   183.38   178.71   173.94   166.34   156.08   152.14   
 148.15   144.08   140.12   136.05   131.85   127.96   124.01   119.91   111.22   108.82   
 103.20   104.21   103.28   100.75   99.27    98.65    96.57    94.55    92.42    88.35    
 78.54    73.37    39.44    40.64    43.28    45.87    48.92    52.15    55.03    57.52    
 59.35    60.70    61.50    61.83    62.70    64.79    68.89    76.46    87.65    101.42   
 115.49   
364553.25 363167.28 360738.23 356199.59 344149.47 317478.81 276543.08 229570.98 186263.21 148969.22 
 122027.13 104483.35 87019.77 74985.71 65269.63 57069.25 50428.27 45168.31 40625.84 36636.02 
 32979.72 29639.06 26649.53 24035.19 21974.46 20389.63 19339.47 18616.37 18138.82 17750.68 
 17296.16 16686.71 15984.81 15242.53 14432.59 13598.32 12736.12 11885.59 11144.44 10404.10 
 9794.07  9203.76  8672.57  8211.33  7812.50  7451.54  7114.18  6783.85  6498.14  6238.90  
 6005.00  5797.51  5606.31  5440.93  5360.42  5385.79  5324.62  5218.54  5030.58  4803.01  
 4547.41  4346.40  4130.01  3929.10  3747.58  3502.48  3264.41  3015.18  2788.33  2585.35  
 2401.84  2218.48  2030.82  1855.44  1689.39  1543.09  1405.80  1271.39  1161.47  1051.76  
 942.05   849.18   770.63   704.91   648.56   601.02   556.63   517.02   488.59   464.80   
 441.57   416.66   391.95   367.50   348.67   330.80   316.52   305.72   296.82   290.13   
 284.54   280.26   276.90   273.80   271.09   268.13   265.65   262.95   259.52   255.73   
 251.64   247.80   244.31   240.74   237.21   233.81   230.36   226.37   222.27   217.88   
 213.69   209.59   205.37   201.23   197.39   193.64   189.72   185.71   181.89   178.18   
 174.35   170.51   166.76   163.10   159.44   155.83   149.18   141.95   138.91   135.73   
 133.04   129.90   126.35   122.79   119.39   116.63   113.76   110.76   107.39   97.54    
 96.25    92.64    95.66    94.73    92.13    90.22    89.12    87.93    86.08    79.75    
 76.03    42.83    40.95    43.28    45.62    48.88    52.29    55.43    58.29    60.75    
 62.69    64.16    65.09    65.62    66.37    68.13    71.69    77.99    87.41    99.88    
 115.49   
364553.25 363580.26 361396.14 356968.57 346507.99 323840.97 288224.12 243479.92 198796.42 160095.55 
 129652.74 107663.23 91027.53 78245.93 67759.93 59387.78 52464.50 46848.32 41936.27 37789.26 
 34067.25 30474.37 27493.82 24513.28 21543.03 19471.75 17666.85 16147.07 14875.59 13913.39 
 13115.37 12363.07 11706.92 11196.83 10741.54 10278.60 9777.96  9306.69  8881.46  8490.42  
 8114.16  7800.38  7490.07  7211.12  6940.41  6691.52  6458.58  6255.71  6054.71  5843.75  
 5635.81  5446.92  5276.74  5100.27  4926.48  4747.97  4577.99  4418.56  4271.19  4128.26  
 3987.64  3839.27  3679.60  3511.07  3338.57  3161.48  2974.01  2791.02  2608.03  2425.27  
 2262.22  2101.62  1943.39  1792.57  1639.20  1501.06  1363.62  1234.38  1117.31  1008.39  
 907.91   816.75   730.82   660.92   604.37   555.32   513.40   475.89   445.89   423.71   
 403.25   382.00   359.28   336.20   318.89   302.14   288.52   277.16   267.31   259.30   
 252.64   246.71   240.70   234.70   228.70   224.12   219.68   215.40   211.35   207.59   
 203.96   200.43   197.13   194.01   190.93   188.14   185.13   182.12   179.33   176.31   
 173.34   169.92   166.79   163.82   160.97   158.17   155.27   152.32   149.49   146.77   
 144.19   141.55   138.88   136.00   133.31   130.62   127.79   124.68   121.52   118.94   
 115.59   111.63   107.13   102.59   97.45    94.37    91.39    89.27    81.10    80.09    
 77.27    80.69    77.97    75.79    73.21    70.72    69.50    65.99    64.21    39.09    
 36.16    38.35    40.30    43.31    46.77    50.31    53.72    57.08    60.14    62.90    
 65.39    67.64    69.39    70.50    71.65    73.68    77.19    82.64    90.31    99.75    
 115.49   
364553.25 363607.26 361180.41 355806.16 344338.15 322683.48 289335.74 247201.31 203636.90 164259.34 
 132885.21 114353.52 95931.88 77510.26 67108.31 58652.72 51903.37 46493.09 41721.13 37525.10 
 33742.19 30022.40 26627.91 23529.39 20758.26 18390.10 16405.71 14662.94 13150.59 11905.59 
 10902.02 9900.71  9149.24  8593.93  8170.42  7844.42  7568.64  7322.58  7113.51  6916.56  
 6730.57  6545.48  6376.86  6232.06  6091.90  5956.99  5800.04  5659.38  5519.65  5375.51  
 5225.31  5073.06  4917.98  4779.72  4644.43  4495.51  4338.45  4176.90  4014.50  3849.29  
 3688.88  3532.95  3380.24  3227.16  3080.50  2935.90  2791.72  2645.54  2491.71  2332.99  
 2177.85  2028.77  1884.55  1739.18  1597.40  1463.67  1337.25  1206.08  1092.70  979.47   
 883.75   793.02   709.81   636.81   574.14   523.27   480.29   445.47   414.69   392.42   
 372.26   350.78   330.58   310.22   292.32   277.13   263.85   252.93   243.24   234.38   
 225.57   218.37   211.56   205.19   199.69   194.15   189.28   184.48   180.03   175.89   
 172.22   168.34   164.93   161.62   158.57   155.73   153.37   150.81   148.19   145.45   
 143.13   140.69   138.16   135.72   133.54   131.32   128.82   126.33   123.84   121.75   
 119.40   116.45   114.05   111.38   108.89   106.35   103.36   100.44   97.42    94.18    
 90.32    86.85    83.22    78.92    74.44    60.75    60.75    57.93    56.66    55.06    
 51.69    49.11    44.95    42.35    36.29    23.58    23.60    27.03    29.50    31.89    
 35.21    38.93    42.62    46.19    49.57    52.77    55.76    58.64    61.19    63.48    
 65.69    67.91    70.20    72.28    74.51    77.84    82.35    88.05    95.00    103.40   
 115.49   
364553.25 364173.50 362019.02 356835.21 346173.55 327017.98 298387.61 257867.76 217347.89 176879.70 
 141397.06 114071.24 93149.55 77138.05 65036.78 55827.36 48614.52 42866.12 38034.64 33909.56 
 30232.22 26933.00 23633.78 20341.34 17658.25 15383.63 13544.41 11980.33 10719.17 9740.04  
 8972.40  8339.49  7825.86  7405.40  7110.11  6860.96  6652.16  6467.97  6298.85  6151.10  
 6015.69  5874.36  5743.63  5627.70  5507.86  5397.46  5269.65  5126.95  4978.23  4828.94  
 4698.85  4567.21  4439.97  4312.32  4189.13  4064.75  3942.48  3829.81  3715.10  3596.69  
 3470.10  3330.29  3188.86  3046.80  2917.44  2783.31  2649.18  2515.08  2383.13  2248.92  
 2113.50  1973.54  1833.45  1699.98  1575.10  1452.32  1328.47  1205.58  1095.66  991.29   
 892.56   798.02   714.15   639.77   576.64   520.46   471.54   434.28   405.07   381.26   
 362.94   344.72   324.41   305.55   288.73   273.79   260.53   247.51   234.49   221.50   
 211.06   201.19   192.29   184.17   176.97   170.33   163.76   157.94   152.62   148.14   
 143.87   140.02   136.19   132.55   128.87   125.28   121.98   118.80   115.85   112.84   
 110.04   107.03   103.79   100.81   98.27    95.41    92.40    89.70    86.47    83.64    
 80.08    76.66    73.59    70.17    67.10    63.07    59.20    55.16    50.66    48.79    
 44.24    41.96    39.32    36.01    32.09    27.92    15.63    9.54     7.87     8.60     
 10.05    11.75    13.70    15.87    18.26    20.94    23.86    26.92    30.22    33.62    
 37.07    40.51    43.95    47.32    50.58    53.76    56.60    59.38    61.90    64.27    
 66.66    69.01    71.27    74.00    77.24    81.36    86.52    92.60    99.62    107.51   
 115.49   
364553.25 364169.63 361905.79 356532.71 346135.81 327259.21 299836.87 262906.19 220696.22 178754.58 
 141610.88 118258.27 95024.16 71790.05 58722.31 48636.82 41037.03 35032.89 30365.95 26337.11 
 23014.85 20083.10 17400.33 14838.55 12677.98 11355.01 10038.65 8722.30  8072.51  7594.23  
 7216.24  6909.82  6621.31  6375.92  6171.05  6000.67  5844.24  5700.37  5579.84  5464.76  
 5366.19  5272.99  5175.83  5062.98  4941.56  4794.76  4630.07  4463.63  4302.81  4155.29  
 4015.89  3887.40  3766.24  3649.56  3524.09  3400.55  3287.07  3177.68  3069.54  2960.20  
 2846.84  2732.14  2625.15  2517.03  2402.87  2291.07  2181.70  2075.57  1965.04  1854.48  
 1740.30  1632.92  1523.49  1412.13  1297.95  1185.35  1092.27  999.37   910.39   825.33   
 746.49   672.89   602.97   540.51   484.33   436.51   392.60   357.21   330.23   309.29   
 290.48   275.10   256.64   241.87   224.76   209.91   197.72   185.51   172.57   160.91   
 149.92   140.27   131.37   122.73   114.10   107.97   101.90   96.09    91.15    86.32    
 81.59    77.32    73.50    69.22    65.38    61.61    57.95    54.46    50.92    47.53    
 44.22    41.02    37.66    34.39    31.33    28.24    25.10    21.69    17.87    13.80    
 9.55     6.81     5.17     3.87     3.20     3.17     3.35     3.56     3.80     4.07     
 4.40     4.77     5.21     5.74     6.35     7.14     8.06     9.15     10.38    11.77    
 13.36    15.12    17.05    19.20    21.58    24.09    26.81    29.70    32.67    35.74    
 38.84    41.97    45.13    48.28    51.44    54.47    57.55    60.62    63.48    66.23    
 69.00    71.81    74.77    77.93    81.73    86.23    91.72    98.27    105.80   114.14   
 115.49   
364553.25 364173.22 362278.99 358202.49 349572.84 333846.75 306923.12 271563.54 229022.91 185255.50 
 143913.70 117777.78 91815.20 65852.62 52616.21 42719.58 34732.37 28769.01 24025.32 20459.54 
 17780.44 15308.35 13082.34 11548.10 10021.60 8495.10  7599.47  6911.07  6386.48  6009.29  
 5682.92  5389.02  5117.42  4878.36  4660.81  4465.83  4287.05  4118.81  3947.95  3802.88  
 3655.75  3521.33  3379.50  3238.38  3088.10  2941.70  2782.98  2635.70  2488.93  2354.55  
 2222.64  2097.57  1983.33  1868.44  1760.70  1662.62  1567.83  1474.68  1388.72  1300.85  
 1214.95  1136.07  1055.39  974.68   898.02   823.72   751.68   681.38   613.51   546.86   
 488.52   431.99   379.95   330.26   284.76   244.97   209.97   178.63   149.65   125.59   
 106.31   87.08    71.59    58.24    47.52    39.85    17.94    9.49     5.87     2.29     
 1.94     1.81     1.77     1.77     1.82     1.88     1.95     2.02     2.10     2.19     
 2.28     2.37     2.47     2.57     2.68     2.79     2.91     3.03     3.15     3.28     
 3.42     3.57     3.72     3.90     4.07     4.26     4.45     4.65     4.87     5.10     
 5.33     5.56     5.80     6.05     6.31     6.55     6.81     7.09     7.36     7.63     
 7.92     8.20     8.52     8.88     9.27     9.70     10.21    10.77    11.46    12.31    
 13.30    14.50    16.04    17.84    20.04    22.69    26.03    30.08    35.00    40.91    
 47.81    55.53    63.99    73.24    83.50    94.16    104.97   115.62   126.46   137.43   
 147.60   156.79   165.03   172.79   179.21   184.28   188.10   190.72   191.78   191.32   
 189.38   186.15   181.72   176.31   170.17   163.42   156.14   148.09   139.36   130.27   
 115.49   
364553.25 364381.18 362697.16 359680.59 353293.21 340813.11 318217.84 285700.12 242915.72 200114.28 
 155178.64 118883.19 91122.66 68811.60 53825.05 43166.40 34845.89 29030.78 23215.67 17424.11 
 14800.46 12491.53 10395.17 8454.80  6750.99  5665.21  4777.33  4064.48  3559.82  3138.19  
 2828.73  2519.27  2210.32  1966.18  1741.56  1548.40  1382.40  1230.26  1072.87  915.60   
 784.62   663.42   551.20   451.65   367.93   307.23   246.54   186.02   145.64   114.46   
 94.38    77.65    64.97    55.77    48.29    40.94    35.92    32.15    28.90    26.37    
 24.17    22.37    20.83    19.65    18.71    17.93    17.24    16.33    15.37    14.49    
 14.03    13.90    14.00    14.03    14.21    14.43    14.60    14.76    14.76    14.69    
 14.33    13.47    11.66    8.51     4.89     1.68     1.54     1.59     1.66     1.74     
 1.82     1.90     1.99     2.10     2.20     2.32     2.44     2.56     2.70     2.83     
 2.97     3.11     3.26     3.42     3.58     3.74     3.91     4.09     4.27     4.46     
 4.65     4.85     5.07     5.28     5.50     5.73     5.98     6.24     6.50     6.74     
 7.00     7.27     7.55     7.82     8.10     8.37     8.66     8.96     9.25     9.57     
 9.90     10.26    10.65    11.09    11.60    12.16    12.81    13.57    14.42    15.46    
 16.66    18.06    19.73    21.66    23.98    26.79    30.15    34.21    38.99    44.80    
 51.49    59.09    67.45    76.71    86.73    97.09    107.97   118.66   129.55   139.95   
 149.79   158.84   166.90   173.99   179.86   184.63   188.16   190.47   191.39   190.77   
 188.82   185.62   181.36   176.09   170.04   163.45   155.98   147.83   138.46   128.56   
 115.49   
364553.25 364216.73 362558.49 360019.29 355145.65 345032.74 326346.20 293746.82 249960.80 190891.09 
 136796.84 108148.51 79790.10 51431.68 39553.87 30183.15 21647.68 17163.70 13937.67 11339.26 
 8748.34  6157.42  4310.35  3248.05  2433.45  1074.74  813.14   563.11   424.24   330.66   
 246.31   188.92   157.52   133.04   115.68   98.40    85.11    73.24    64.49    57.24    
 50.41    44.82    40.07    35.85    32.30    29.33    26.66    24.77    22.67    21.13    
 19.68    18.10    16.01    14.15    12.30    10.69    9.53     8.74     8.01     7.45     
 6.84     6.43     6.28     6.16     6.01     5.95     5.90     5.81     5.73     5.65     
 5.56     5.52     5.42     5.26     5.14     5.00     4.75     4.37     3.95     3.55     
 3.10     2.60     2.09     1.92     1.89     1.90     1.96     2.05     2.14     2.23     
 2.33     2.45     2.56     2.70     2.84     2.99     3.16     3.32     3.49     3.67     
 3.84     4.03     4.21     4.42     4.62     4.82     5.04     5.26     5.47     5.70     
 5.93     6.18     6.43     6.68     6.93     7.20     7.46     7.72     7.99     8.26     
 8.53     8.82     9.11     9.40     9.69     9.99     10.30    10.65    11.01    11.40    
 11.80    12.25    12.73    13.26    13.89    14.62    15.44    16.36    17.41    18.57    
 19.94    21.54    23.39    25.51    27.92    30.76    34.17    38.25    43.09    48.83    
 55.62    63.23    71.68    81.01    91.50    102.46   113.61   124.71   135.74   146.96   
 157.35   166.56   174.73   181.95   187.62   191.65   194.45   195.44   194.87   192.97   
 189.96   185.96   181.10   175.65   169.61   162.66   155.21   146.97   137.52   127.24   
 115.49   
364553.25 364345.22 363104.78 361292.30 357348.22 349100.44 320035.28 269607.89 219180.49 168798.49 
 124298.29 83105.71 54572.85 41382.66 30503.34 19660.40 12790.83 9666.22  5582.64  1526.44  
 1148.76  824.49   512.65   345.42   279.74   214.06   148.76   125.05   101.57   78.14    
 66.12    57.91    51.49    46.21    41.93    37.74    34.35    31.39    28.72    26.21    
 24.29    22.24    20.20    18.23    16.02    13.75    11.91    10.53    9.38     8.53     
 7.82     7.13     6.51     5.98     5.58     5.25     4.94     4.70     4.50     4.30     
 4.11     3.90     3.74     3.61     3.48     3.37     3.25     3.11     3.00     2.93     
 2.85     2.78     2.67     2.55     2.43     2.32     2.21     2.13     2.04     1.97     
 1.92     1.92     1.93     1.96     2.01     2.08     2.16     2.24     2.32     2.42     
 2.52     2.62     2.72     2.84     2.98     3.11     3.26     3.41     3.57     3.73     
 3.91     4.08     4.27     4.46     4.66     4.86     5.07     5.29     5.51     5.73     
 5.96     6.21     6.47     6.72     6.98     7.26     7.54     7.83     8.12     8.40     
 8.70     9.02     9.35     9.68     10.02    10.37    10.76    11.18    11.63    12.13    
 12.65    13.21    13.82    14.48    15.23    16.06    17.01    18.09    19.24    20.53    
 22.02    23.70    25.54    27.68    30.10    32.94    36.18    40.05    44.57    50.08    
 56.49    63.97    72.29    81.74    92.17    103.17   114.97   126.74   138.88   150.76   
 161.94   172.27   181.27   188.98   194.75   198.78   200.96   201.17   199.76   197.38   
 193.39   188.08   181.84   175.09   167.76   160.23   152.14   143.57   133.95   123.52   
 115.49   
364553.25 364216.43 363226.82 361165.49 357041.54 328588.69 278322.14 236837.14 192078.05 141290.68 
 107506.45 73921.48 40336.50 25680.14 16361.37 11290.39 6263.11  1235.83  943.44   710.15   
 438.45   224.89   205.36   136.74   122.25   108.37   97.42    71.51    67.28    51.33    
 42.30    38.11    32.18    29.53    25.85    24.13    21.71    19.47    17.04    14.94    
 12.90    11.53    10.31    9.70     9.31     8.85     8.05     7.51     7.47     6.96     
 6.73     6.24     5.69     5.35     4.51     4.05     3.88     3.75     3.62     3.47     
 3.32     3.17     3.04     2.89     2.77     2.66     2.56     2.47     2.38     2.30     
 2.22     2.14     2.08     2.02     1.97     1.92     1.90     1.88     1.85     1.83     
 1.83     1.83     1.85     1.90     1.96     2.02     2.10     2.18     2.27     2.36     
 2.47     2.58     2.70     2.83     2.96     3.10     3.25     3.42     3.57     3.75     
 3.93     4.12     4.31     4.52     4.74     4.96     5.19     5.44     5.68     5.94     
 6.21     6.49     6.78     7.06     7.36     7.66     7.98     8.29     8.62     8.96     
 9.30     9.64     10.00    10.38    10.77    11.16    11.60    12.06    12.55    13.06    
 13.64    14.27    14.98    15.76    16.65    17.61    18.67    19.85    21.19    22.63    
 24.24    26.01    28.04    30.28    32.76    35.60    38.91    42.77    47.34    52.76    
 59.29    66.80    75.28    84.90    95.70    107.00   118.76   130.86   143.64   156.09   
 167.87   178.85   188.46   196.39   202.22   206.01   207.60   207.04   204.71   200.82   
 195.69   189.38   182.39   174.86   166.87   158.58   149.82   140.68   131.05   120.64   
 115.49   
364553.25 364506.54 363659.72 361766.01 357477.40 316691.03 270326.77 223962.57 177534.11 122717.68 
 89797.66 53681.10 40464.69 27248.29 14031.88 937.21   1012.17  479.03   283.49   374.31   
 284.42   194.61   116.20   97.08    63.06    36.65    26.09    19.97    17.20    15.28    
 14.11    13.26    12.68    11.89    11.22    10.27    9.01     7.75     6.73     5.93     
 5.35     4.87     4.47     4.10     3.72     3.46     3.27     3.18     3.07     2.94     
 2.83     2.73     2.66     2.57     2.50     2.44     2.38     2.34     2.27     2.22     
 2.17     2.15     2.11     2.08     2.06     2.02     1.98     1.96     1.93     1.90     
 1.89     1.86     1.85     1.83     1.81     1.81     1.81     1.81     1.81     1.82     
 1.84     1.87     1.90     1.95     2.00     2.06     2.12     2.19     2.26     2.33     
 2.42     2.51     2.61     2.71     2.82     2.96     3.09     3.24     3.41     3.58     
 3.78     3.98     4.20     4.43     4.69     4.95     5.22     5.51     5.79     6.07     
 6.37     6.68     6.98     7.27     7.57     7.88     8.21     8.56     8.90     9.24     
 9.60     9.98     10.38    10.81    11.24    11.70    12.20    12.72    13.26    13.81    
 14.39    15.05    15.77    16.56    17.41    18.36    19.43    20.58    21.81    23.16    
 24.76    26.47    28.35    30.55    33.00    35.88    39.10    42.79    47.23    52.63    
 58.93    66.58    75.33    85.24    96.33    107.94   120.19   132.41   145.24   157.78   
 169.87   181.62   192.03   200.91   207.48   211.86   213.93   213.70   211.36   207.32   
 202.03   195.55   188.50   180.56   172.07   163.45   154.33   144.78   134.75   124.37   
 115.49   
364553.25 364332.14 363223.89 360842.15 356274.01 307594.97 259874.23 216114.19 163884.34 116442.44 
 82691.40 49099.45 26227.08 6800.75  502.17   307.12   174.23   41.33    28.65    21.79    
 18.71    15.81    13.59    11.97    10.70    9.56     8.51     7.69     7.09     6.90     
 7.23     7.53     7.62     7.27     6.86     6.47     5.82     5.40     5.18     5.09     
 5.13     4.84     4.56     4.16     3.86     3.47     3.33     3.25     3.08     2.93     
 2.68     2.55     2.50     2.50     2.45     2.44     2.43     2.43     2.38     2.33     
 2.33     2.32     2.32     2.31     2.31     2.31     2.31     2.31     2.30     2.30     
 2.29     2.29     2.29     2.29     2.29     2.31     2.31     2.31     2.31     2.31     
 2.31     2.31     2.34     2.40     2.51     2.68     2.82     2.95     3.03     3.09     
 3.16     3.22     3.34     3.43     3.47     3.52     3.60     3.70     3.82     3.98     
 4.17     4.37     4.59     4.84     5.12     5.41     5.70     6.02     6.32     6.62     
 6.90     7.17     7.43     7.68     7.94     8.20     8.49     8.81     9.16     9.54     
 9.93     10.35    10.79    11.25    11.74    12.24    12.78    13.39    14.00    14.67    
 15.35    16.05    16.79    17.58    18.42    19.32    20.29    21.35    22.51    23.82    
 25.29    26.94    28.85    31.02    33.45    36.34    39.77    43.64    48.14    53.60    
 60.50    68.49    77.69    87.81    98.95    111.15   123.51   135.98   148.78   161.24   
 173.08   184.60   195.16   203.89   210.43   214.58   216.19   215.55   212.83   208.32   
 202.55   195.81   188.41   180.58   172.42   163.94   155.46   146.63   137.46   127.64   
 115.49   
