IESNA:LM-63-2002
[TEST] 1
[TESTLAB] AOK
[TESTDATE] 2022-06-25
[ISSUEDATE] 2022-07-02 14:56:09
[NEARFIELD] 
[LAMPPOSITION] 0,0
[OTHER] EVERFINE GO-2000A_V1 SYSTEM
[MANUFAC] AOK
[LUMCAT] A
[LUMINAIRE] AOK-800WiSF-HV-S35-00-5070-2030D-P
[LAMPCAT] B
[LAMP] 3535
[BALLAST] E
[BALLASTCAT] F
[OTHER] 
[OTHER] Gamma(deg)    Fz(lm)      Ft(lm)     %Lum    %Lamp
[OTHER]   0- 10     32846.88    32846.88    30.44    30.44
[OTHER]  10- 20     38603.00    71449.88    66.22    66.22
[OTHER]  20- 30     16546.89    87996.77    81.55    81.55
[OTHER]  30- 40      7286.21    95282.98    88.30    88.30
[OTHER]  40- 50      4345.91    99628.89    92.33    92.33
[OTHER]  50- 60      3269.32   102898.21    95.36    95.36
[OTHER]  60- 70      2206.59   105104.80    97.41    97.41
[OTHER]  70- 80      1202.58   106307.38    98.52    98.52
[OTHER]  80- 90       565.41   106872.79    99.04    99.04
[OTHER]  90-100       306.33   107179.12    99.33    99.33
[OTHER] 100-110       204.80   107383.92    99.52    99.52
[OTHER] 110-120       149.32   107533.24    99.66    99.66
[OTHER] 120-130       105.03   107638.27    99.75    99.75
[OTHER] 130-140        69.40   107707.67    99.82    99.82
[OTHER] 140-150        52.41   107760.08    99.87    99.87
[OTHER] 150-160        60.33   107820.41    99.92    99.92
[OTHER] 160-170        61.22   107881.63    99.98    99.98
[OTHER] 170-180        22.75   107904.38   100.00   100.00
[OTHER] 
TILT=NONE
1 1.079e+005 1 181 25 1 2 0.150 0.200 0.000
1.000 1 818.778
0.0    1.0    2.0    3.0    4.0    5.0    6.0    7.0    8.0    9.0    
 10.0   11.0   12.0   13.0   14.0   15.0   16.0   17.0   18.0   19.0   
 20.0   21.0   22.0   23.0   24.0   25.0   26.0   27.0   28.0   29.0   
 30.0   31.0   32.0   33.0   34.0   35.0   36.0   37.0   38.0   39.0   
 40.0   41.0   42.0   43.0   44.0   45.0   46.0   47.0   48.0   49.0   
 50.0   51.0   52.0   53.0   54.0   55.0   56.0   57.0   58.0   59.0   
 60.0   61.0   62.0   63.0   64.0   65.0   66.0   67.0   68.0   69.0   
 70.0   71.0   72.0   73.0   74.0   75.0   76.0   77.0   78.0   79.0   
 80.0   81.0   82.0   83.0   84.0   85.0   86.0   87.0   88.0   89.0   
 90.0   91.0   92.0   93.0   94.0   95.0   96.0   97.0   98.0   99.0   
 100.0  101.0  102.0  103.0  104.0  105.0  106.0  107.0  108.0  109.0  
 110.0  111.0  112.0  113.0  114.0  115.0  116.0  117.0  118.0  119.0  
 120.0  121.0  122.0  123.0  124.0  125.0  126.0  127.0  128.0  129.0  
 130.0  131.0  132.0  133.0  134.0  135.0  136.0  137.0  138.0  139.0  
 140.0  141.0  142.0  143.0  144.0  145.0  146.0  147.0  148.0  149.0  
 150.0  151.0  152.0  153.0  154.0  155.0  156.0  157.0  158.0  159.0  
 160.0  161.0  162.0  163.0  164.0  165.0  166.0  167.0  168.0  169.0  
 170.0  171.0  172.0  173.0  174.0  175.0  176.0  177.0  178.0  179.0  
 180.0  
0.0    15.0   30.0   45.0   60.0   75.0   90.0   105.0  120.0  135.0  
 150.0  165.0  180.0  195.0  210.0  225.0  240.0  255.0  270.0  285.0  
 300.0  315.0  330.0  345.0  360.0  
447105.38 445762.28 439287.76 426534.92 376208.89 332434.28 285842.26 234188.57 185915.69 141485.09 
 113547.24 85801.34 58055.45 50652.08 44948.20 40393.10 36684.10 27238.37 21408.14 17154.35 
 11938.32 7605.83  3283.85  819.28   93.68    58.00    29.52    22.18    19.39    18.15    
 17.04    15.57    14.56    13.50    12.36    11.16    10.20    9.37     9.03     8.86     
 8.71     8.38     8.31     7.93     7.44     7.03     6.76     6.34     5.98     5.68     
 5.39     5.15     5.03     4.89     4.76     4.57     4.47     4.39     4.37     4.34     
 4.32     4.29     4.27     4.26     4.27     4.25     4.23     4.22     4.20     4.18     
 4.16     4.13     4.10     4.07     4.02     4.00     3.98     3.94     3.91     3.89     
 3.90     3.90     3.90     3.91     3.91     3.92     3.96     4.02     4.10     4.20     
 4.30     4.43     4.57     4.72     4.88     5.06     5.24     5.44     5.64     5.87     
 6.10     6.33     6.59     6.86     7.15     7.44     7.73     8.05     8.37     8.71     
 9.06     9.43     9.80     10.20    10.61    11.06    11.52    11.98    12.48    12.99    
 13.54    14.10    14.70    15.34    15.98    16.65    17.41    18.21    19.06    19.97    
 20.96    22.05    23.32    24.74    26.41    28.38    30.71    33.48    36.67    40.27    
 44.24    48.60    53.56    58.94    64.84    71.29    78.50    86.82    96.45    107.60   
 120.50   134.91   150.83   168.71   187.64   207.65   228.17   250.26   272.36   292.82   
 312.36   331.33   348.56   363.14   374.97   383.05   387.86   388.99   386.76   381.37   
 373.84   364.55   353.95   342.15   329.45   315.14   299.39   282.71   264.60   245.25   
 224.91   
447105.38 446826.12 442111.65 432371.32 400918.17 352414.81 311041.14 264441.04 217799.61 165745.82 
 126626.42 93930.61 64248.28 54309.93 47396.04 41862.39 37644.95 33846.37 26799.45 19779.20 
 16327.69 10980.23 6377.59  4400.35  2423.12  462.01   306.09   151.56   143.58   105.47   
 76.24    99.60    58.92    35.08    26.29    22.03    19.52    17.97    16.82    15.90    
 15.28    14.36    13.39    12.44    11.57    10.63    9.59     8.49     7.82     7.23     
 6.76     6.49     6.24     5.97     5.68     5.48     5.60     5.80     5.81     5.75     
 5.62     5.47     5.31     5.15     4.99     4.86     4.72     4.57     4.42     4.31     
 4.16     4.08     4.01     3.94     3.86     3.78     3.71     3.63     3.56     3.50     
 3.49     3.48     3.49     3.53     3.57     3.61     3.65     3.71     3.80     3.91     
 4.03     4.17     4.31     4.48     4.65     4.85     5.03     5.23     5.45     5.68     
 5.92     6.17     6.44     6.71     7.01     7.31     7.63     7.95     8.28     8.61     
 8.96     9.32     9.70     10.11    10.54    10.96    11.43    11.89    12.39    12.90    
 13.44    14.02    14.63    15.23    15.87    16.55    17.29    18.07    18.90    19.81    
 20.82    21.92    23.18    24.70    26.44    28.58    31.16    34.09    37.39    41.15    
 45.42    50.04    55.07    60.61    66.73    73.58    81.19    89.84    99.63    111.02   
 124.92   138.83   154.31   171.80   190.29   209.67   229.92   249.78   270.46   290.31   
 309.54   327.67   344.29   358.66   369.27   376.95   381.10   381.86   379.51   374.27   
 367.00   357.90   347.74   336.36   324.05   310.42   295.25   279.03   261.41   243.13   
 224.91   
447105.38 446755.97 442436.16 434076.91 421397.66 376805.77 332288.35 293082.22 246519.39 206133.10 
 160631.11 126729.90 98169.13 69666.53 55527.77 47745.87 41655.36 36832.30 32639.08 29043.67 
 21447.11 16654.95 13444.53 9743.31  6036.39  4183.79  2306.97  1656.16  1017.90  379.65   
 240.69   204.85   161.86   135.81   109.96   84.11    65.42    50.47    44.19    37.15    
 33.93    30.11    27.57    24.86    22.82    20.46    18.46    17.17    15.51    13.60    
 11.42    10.68    9.91     9.16     8.35     7.94     7.86     7.83     7.71     7.43     
 7.06     6.74     6.52     6.32     6.14     5.96     5.80     5.63     5.50     5.33     
 5.12     4.93     4.76     4.56     4.37     4.18     4.00     3.84     3.69     3.56     
 3.46     3.39     3.38     3.39     3.46     3.53     3.62     3.72     3.84     3.96     
 4.11     4.26     4.41     4.59     4.78     4.98     5.20     5.44     5.67     5.93     
 6.20     6.48     6.76     7.06     7.36     7.68     8.00     8.35     8.70     9.07     
 9.44     9.84     10.25    10.67    11.12    11.58    12.04    12.52    13.01    13.52    
 14.05    14.63    15.24    15.88    16.54    17.27    18.07    18.96    19.95    21.08    
 22.40    23.94    25.75    27.79    30.14    32.79    35.85    39.25    43.01    47.11    
 51.53    56.61    62.26    68.46    75.31    82.95    91.62    101.40   112.22   124.38   
 137.76   152.06   167.33   183.95   201.16   218.79   237.99   257.21   275.55   293.57   
 310.67   326.20   339.57   350.79   359.20   364.52   367.28   367.23   364.61   359.96   
 353.60   346.03   337.15   327.05   315.23   302.07   287.46   272.01   256.20   240.60   
 224.91   
447105.38 447318.89 444054.27 438059.03 427592.16 411003.09 375337.59 334119.30 303191.11 264031.62 
 224872.12 185796.88 156901.93 123922.52 102196.75 82342.35 61021.69 48397.18 40958.97 35381.16 
 30550.98 27208.41 23865.83 20512.69 15919.24 12838.07 9811.11  7553.89  5722.68  4017.62  
 2942.06  1868.42  1049.23  649.12   441.30   346.65   252.00   157.94   128.90   105.78   
 86.24    73.23    63.46    53.80    47.01    40.62    36.32    32.32    28.79    26.33    
 24.30    22.53    21.14    19.30    16.69    12.41    11.08    10.77    10.46    10.08    
 9.65     9.26     8.90     8.59     8.29     7.97     7.69     7.45     7.21     6.93     
 6.66     6.39     6.13     5.84     5.53     5.20     4.85     4.49     4.15     3.86     
 3.60     3.37     3.26     3.27     3.33     3.43     3.53     3.64     3.76     3.91     
 4.05     4.22     4.39     4.58     4.79     5.00     5.24     5.49     5.75     6.02     
 6.29     6.58     6.90     7.24     7.57     7.92     8.27     8.63     9.01     9.38     
 9.75     10.14    10.56    10.98    11.42    11.91    12.41    12.91    13.43    13.97    
 14.55    15.20    15.90    16.64    17.47    18.40    19.46    20.66    21.99    23.50    
 25.15    27.01    29.10    31.38    33.90    36.75    39.98    43.53    47.47    51.89    
 56.97    62.63    68.93    75.99    83.85    92.73    102.41   113.01   125.45   137.89   
 151.34   165.74   180.33   196.24   212.37   228.72   245.46   261.23   277.13   291.92   
 305.48   317.74   328.33   337.06   343.49   347.97   350.21   350.68   349.20   346.05   
 341.31   335.07   327.24   317.99   307.28   295.25   282.04   268.69   254.55   241.02   
 224.91   
447105.37 446482.55 443429.59 437584.44 426296.61 409223.72 395206.95 378828.65 352934.20 316714.95 
 280774.42 250366.40 220061.58 192722.83 163131.57 136041.93 118011.18 96093.87 74125.91 59486.46 
 46336.82 38589.85 30966.10 25841.16 22914.65 20128.13 18035.96 15960.71 14091.78 12385.41 
 10750.23 9115.91  7438.68  5898.49  4668.30  3662.83  2820.59  2238.37  1758.89  1364.24  
 1076.73  790.56   504.38   358.28   252.71   194.04   156.38   126.78   106.17   85.65    
 73.36    63.82    57.04    50.77    44.94    40.78    37.21    34.02    31.47    29.22    
 26.58    24.17    20.98    15.54    13.70    12.74    12.17    11.54    10.89    10.33    
 9.83     9.35     8.94     8.51     8.02     7.56     7.11     6.60     6.00     5.37     
 4.78     4.26     3.81     3.64     3.63     3.72     3.85     3.95     4.09     4.22     
 4.39     4.55     4.73     4.94     5.16     5.39     5.62     5.88     6.15     6.45     
 6.74     7.04     7.37     7.71     8.05     8.41     8.78     9.17     9.58     9.97     
 10.38    10.82    11.27    11.74    12.23    12.73    13.25    13.81    14.41    15.06    
 15.76    16.53    17.37    18.29    19.28    20.35    21.61    22.96    24.46    26.03    
 27.81    29.77    32.02    34.50    37.29    40.43    44.04    48.25    53.02    58.39    
 64.34    71.11    78.75    87.17    96.37    106.49   117.43   128.89   140.97   154.12   
 167.76   181.63   195.57   209.34   223.70   238.46   253.22   266.10   278.65   290.24   
 300.46   309.49   317.65   324.29   329.57   333.21   335.18   335.55   334.42   331.65   
 327.47   321.78   314.90   307.07   297.94   288.23   277.94   266.86   255.29   243.75   
 224.91   
447105.38 445837.79 443185.68 438355.36 427970.37 411801.49 399407.61 383189.88 365724.96 346755.12 
 326542.60 306737.06 282653.58 256377.11 230100.63 203808.82 175842.04 146073.88 119981.02 98617.84 
 81844.03 68548.57 57708.46 49015.62 43072.76 38070.55 33686.63 29357.13 26546.31 23735.49 
 20926.44 18357.35 15792.22 13783.87 11945.09 10329.47 8966.61  7798.99  6853.29  6069.41  
 5411.64  4848.04  4392.44  3983.48  3600.14  3214.79  2880.10  2545.42  2210.89  1893.31  
 1578.08  1271.55  989.93   762.86   588.30   472.35   383.74   313.55   261.54   209.66   
 172.66   141.63   117.32   98.97    84.78    72.30    61.64    52.00    45.04    39.41    
 34.46    30.48    27.30    23.70    17.40    15.67    14.52    13.05    11.79    10.59    
 9.37     7.80     5.94     4.23     3.33     3.34     3.42     3.50     3.59     3.70     
 3.81     3.95     4.09     4.27     4.46     4.68     4.91     5.15     5.42     5.66     
 5.93     6.22     6.52     6.85     7.19     7.55     7.93     8.32     8.75     9.18     
 9.63     10.12    10.62    11.13    11.65    12.17    12.75    13.35    13.96    14.63    
 15.38    16.24    17.23    18.27    19.41    20.74    22.23    23.85    25.61    27.50    
 29.60    31.88    34.34    37.13    40.18    43.72    47.80    52.39    57.46    63.00    
 69.06    76.35    84.43    93.28    102.94   113.58   125.47   137.35   149.82   162.68   
 175.80   189.14   202.00   215.25   228.03   240.58   252.63   264.16   275.25   285.49   
 294.89   303.32   310.87   317.49   323.04   327.26   330.17   331.62   331.82   330.40   
 327.83   323.97   319.19   312.95   305.65   297.29   287.91   277.73   267.30   256.51   
 224.91   
447105.38 444289.72 440652.55 435916.13 426144.14 410943.31 398942.75 384223.05 367572.18 349595.49 
 330930.39 312753.58 289906.20 266522.96 240124.14 213705.14 185624.62 158710.74 134067.61 114056.38 
 97184.73 83082.52 72038.99 62324.20 54643.89 48387.55 43378.72 38715.99 34978.95 31728.66 
 28639.99 25870.07 23100.14 20335.14 18023.67 15999.79 14234.35 12706.16 11503.22 10480.76 
 9668.56  8983.84  8421.48  7889.82  7414.65  6962.49  6577.42  6220.04  5893.35  5554.51  
 5211.29  4860.49  4497.17  4160.42  3854.89  3595.40  3330.36  3092.33  2860.51  2659.91  
 2459.31  2258.96  2078.86  1910.29  1748.20  1600.89  1457.67  1314.21  1179.93  1058.83  
 939.35   835.65   738.33   647.18   561.80   482.35   410.69   345.20   289.26   241.32   
 193.48   153.65   120.18   91.40    57.85    23.64    5.43     3.68     3.13     2.86     
 2.58     2.49     2.42     2.35     2.27     2.22     1.95     1.79     1.78     1.76     
 1.74     1.74     1.76     1.83     1.92     1.99     2.03     2.06     2.13     2.20     
 2.21     2.29     2.41     2.50     2.66     2.84     3.03     3.21     3.30     3.40     
 3.50     3.60     3.76     3.93     4.15     4.39     4.68     4.99     5.33     5.72     
 6.18     6.69     7.26     7.84     8.49     9.23     10.06    11.05    12.16    13.37    
 14.73    16.32    18.09    20.05    22.19    24.57    27.08    29.74    32.56    35.51    
 38.58    41.62    44.81    48.14    51.59    55.20    58.99    63.02    67.27    71.61    
 76.14    80.73    85.54    90.89    96.30    102.13   108.45   115.40   123.17   130.95   
 139.42   148.61   158.48   168.95   180.18   192.04   204.09   216.24   228.18   239.84   
 224.91   
447105.38 444369.50 440691.84 435684.07 426074.60 411333.36 398300.44 383731.44 367477.44 348060.92 
 327411.08 306284.13 282626.03 258363.47 232384.68 207520.74 183121.08 160249.99 137627.01 116715.15 
 100098.59 83521.29 72344.89 63476.26 56480.16 50851.77 46229.34 42325.14 38679.36 35276.66 
 32081.97 28966.86 25910.71 23123.05 20563.03 18447.86 16499.58 14758.62 13396.25 12300.62 
 11597.29 10897.77 10198.26 9681.52  9251.47  8870.60  8518.89  8172.94  7856.59  7544.41  
 7255.13  6972.31  6704.50  6428.96  6126.19  5826.33  5517.43  5219.88  4936.22  4656.99  
 4399.88  4164.86  3946.28  3741.22  3541.42  3348.74  3160.46  2981.27  2804.13  2629.77  
 2471.58  2324.16  2177.22  2034.22  1897.15  1774.69  1659.06  1548.22  1438.99  1337.26  
 1243.08  1158.85  1074.70  990.55   915.12   843.68   778.29   718.25   664.15   614.39   
 573.44   531.25   491.85   454.80   419.98   387.35   356.37   328.09   302.70   279.26   
 257.05   236.43   216.88   198.40   180.99   163.76   148.14   132.79   118.86   104.94   
 92.84    82.11    73.02    63.54    54.75    46.55    38.95    32.65    27.90    18.23    
 6.94     4.32     4.05     4.05     4.22     4.40     4.59     4.85     5.13     5.44     
 6.15     6.96     7.67     8.49     9.76     11.19    11.97    11.67    11.91    12.83    
 13.78    14.96    16.42    18.35    20.71    22.53    24.45    26.70    29.14    31.69    
 34.43    37.21    39.61    41.69    44.84    48.01    51.20    54.50    57.80    61.29    
 64.88    68.64    72.54    76.79    81.27    86.21    91.71    97.80    104.75   112.60   
 119.96   129.72   140.93   152.87   164.76   178.08   192.01   206.45   220.52   236.51   
 224.91   
447105.38 444568.43 440492.54 434590.02 425571.28 413001.20 396348.72 379746.13 360943.43 338655.46 
 312188.80 284809.78 259465.03 234120.26 208819.03 187208.73 165872.41 144059.85 122729.58 103908.19 
 89192.19 77625.84 68624.57 61768.22 56035.64 51277.44 47029.49 43182.95 39736.44 36270.18 
 33085.63 30014.36 27063.43 24444.13 21828.87 19576.46 17511.68 15748.01 14213.48 13019.62 
 12101.39 11423.48 10886.13 10450.03 10071.94 9729.36  9387.29  9090.54  8826.32  8578.23  
 8327.69  8070.93  7819.91  7555.87  7296.94  7028.51  6757.24  6479.18  6194.12  5916.90  
 5635.57  5340.93  5053.60  4783.59  4543.80  4307.71  4072.89  3846.00  3621.94  3405.02  
 3191.02  2991.34  2802.10  2629.62  2457.21  2290.07  2130.32  1977.35  1841.99  1712.54  
 1591.80  1479.02  1378.88  1288.26  1206.68  1128.88  1058.58  992.90   933.03   879.96   
 839.32   792.80   748.22   706.90   668.26   633.17   601.12   570.97   543.63   518.41   
 495.16   474.13   454.22   435.60   418.01   401.92   386.68   371.97   358.68   346.77   
 334.75   322.86   311.23   299.85   288.56   277.70   266.79   255.83   243.62   231.41   
 219.21   207.67   196.05   184.34   172.08   159.83   147.18   135.42   123.43   109.52   
 94.99    78.27    54.62    35.30    23.46    20.07    20.42    13.21    7.85     8.20     
 9.06     10.10    11.25    12.55    13.97    15.70    17.61    19.70    22.12    25.26    
 28.55    31.51    35.23    45.62    55.57    41.63    44.78    47.98    51.31    54.71    
 58.18    61.73    65.39    69.35    73.43    77.95    82.77    88.03    94.31    100.29   
 107.94   116.83   127.72   139.20   152.18   165.97   180.84   196.60   212.49   228.47   
 224.91   
447105.38 444122.69 438372.29 430049.76 418803.44 404082.07 384753.73 360876.67 331354.85 298802.88 
 264577.74 233983.59 207106.58 183476.40 162226.08 142720.76 125825.79 113321.77 100861.13 88400.50 
 79192.88 71738.10 65250.50 59531.21 54221.94 49292.29 44565.57 39986.21 35524.57 31201.04 
 27094.09 23443.29 20317.46 17909.13 16200.44 15132.43 14316.59 13628.17 12997.35 12423.91 
 11913.64 11452.60 10992.03 10571.92 10201.01 9879.38  9566.90  9278.34  9014.21  8749.47  
 8473.56  8193.63  7927.56  7671.93  7432.28  7179.27  6930.51  6677.42  6434.63  6178.00  
 5916.90  5658.85  5400.52  5146.95  4900.17  4643.92  4388.79  4141.99  3891.70  3651.31  
 3419.74  3187.45  2974.81  2766.90  2574.90  2393.76  2227.41  2056.43  1899.71  1759.39  
 1633.90  1514.10  1402.70  1301.96  1210.95  1133.89  1056.96  988.40   923.73   877.94   
 840.15   796.21   753.73   715.70   683.11   652.82   626.56   603.20   582.44   563.28   
 545.93   530.09   515.33   501.53   488.88   475.91   463.47   451.61   440.56   429.57   
 418.91   408.35   398.04   388.42   378.42   369.18   359.83   351.43   342.90   334.23   
 326.42   318.19   309.95   302.53   294.08   285.46   276.15   266.71   257.25   247.63   
 237.89   226.78   214.50   202.59   190.86   178.84   166.80   154.65   142.10   129.21   
 114.47   99.72    76.83    29.98    17.46    15.66    15.61    15.20    16.84    19.25    
 21.85    24.61    27.62    30.82    34.10    37.48    41.23    45.30    49.56    53.77    
 66.72    73.93    63.87    68.27    73.08    78.12    83.36    88.78    94.59    100.82   
 107.51   114.96   123.45   132.98   143.81   156.53   170.63   186.22   202.30   219.55   
 224.91   
447105.38 444121.20 437051.83 426359.43 411298.40 391857.96 367161.69 336153.46 299143.40 263414.38 
 227685.33 192062.27 166093.32 145371.48 129925.44 117189.51 106781.18 97578.98 89865.49 83052.53 
 76680.35 70286.20 63674.44 56907.71 50319.89 43596.67 37042.93 31247.02 28109.12 24971.22 
 21848.54 20224.05 18879.03 17762.71 16852.68 15960.69 15116.67 14362.50 13709.28 13088.19 
 12495.58 11955.36 11463.37 11003.87 10604.93 10211.54 9852.96  9512.04  9185.39  8889.00  
 8595.97  8318.63  8056.87  7801.49  7559.04  7325.06  7101.26  6861.83  6612.70  6350.14  
 6095.02  5830.37  5566.69  5285.27  5013.77  4747.77  4469.97  4204.23  3950.58  3710.07  
 3471.03  3256.34  3049.61  2844.06  2637.13  2430.49  2252.66  2084.80  1932.31  1782.69  
 1644.41  1512.98  1392.23  1281.79  1191.17  1105.38  1030.07  959.42   895.59   851.50   
 815.47   779.09   738.86   702.19   669.38   641.47   619.37   599.26   581.22   564.83   
 550.08   536.94   525.64   514.82   504.56   494.95   485.65   476.91   468.42   460.09   
 452.25   443.85   436.18   427.65   419.81   411.14   402.22   393.22   384.77   376.16   
 367.65   359.17   351.50   343.27   335.05   327.12   319.02   310.54   302.35   294.25   
 286.16   277.95   269.81   261.58   252.99   243.16   233.32   223.47   212.45   201.44   
 189.47   177.59   165.21   151.24   132.22   119.02   111.22   102.47   70.59    29.39    
 28.01    27.09    25.52    26.21    29.71    33.47    37.43    41.52    45.98    50.75    
 55.93    61.52    67.41    75.12    100.53   81.24    87.37    93.83    100.31   106.84   
 113.26   119.84   127.28   134.75   143.42   153.37   165.79   180.48   196.65   214.35   
 224.91   
447105.38 442839.60 433507.35 419346.01 400001.25 373799.71 339498.93 298521.59 256532.48 217933.55 
 186125.83 160863.17 141549.82 127428.93 118136.38 108881.50 99626.62 93300.58 87520.70 81524.70 
 74618.33 66826.68 58557.00 49911.75 42010.51 35558.60 31202.45 28389.06 26254.18 24402.25 
 22801.73 21345.74 20029.30 18852.39 17807.10 16849.88 15988.27 15131.37 14316.29 13546.64 
 12836.66 12229.89 11810.84 11393.52 10976.20 10560.45 10175.16 9792.53  9443.99  9112.16  
 8789.76  8480.55  8159.07  7860.28  7586.93  7324.22  7089.24  6873.74  6659.19  6431.43  
 6170.68  5901.99  5618.11  5318.87  5012.28  4734.05  4470.50  4217.89  3964.58  3727.28  
 3498.13  3281.48  3046.72  2810.78  2610.04  2422.05  2249.39  2076.87  1907.55  1761.10  
 1622.86  1493.10  1373.43  1272.96  1188.55  1104.30  1020.05  944.80   883.60   842.84   
 806.18   768.78   724.72   685.79   652.00   624.45   601.05   582.22   565.88   550.43   
 536.80   524.96   516.10   507.92   500.34   493.16   486.09   479.22   473.03   466.69   
 460.25   454.11   447.59   440.89   434.32   427.41   420.88   413.86   405.82   397.65   
 389.38   381.42   373.46   366.06   358.62   351.57   344.31   337.00   329.11   321.58   
 313.88   305.80   297.58   289.05   280.70   270.84   254.45   244.95   236.64   228.50   
 219.49   209.10   199.91   191.17   182.47   173.46   162.00   149.35   139.84   132.17   
 89.35    46.26    28.40    28.89    30.33    32.84    37.37    42.75    48.11    53.96    
 60.43    67.62    74.80    82.38    89.00    119.24   99.72    103.84   110.70   117.16   
 123.20   129.08   134.76   140.61   146.92   154.51   164.10   176.42   190.63   207.50   
 224.91   
447105.38 443078.39 433600.62 418546.74 397342.25 368326.27 331672.67 288720.24 248166.38 207728.08 
 178326.40 156357.43 139406.99 126194.94 115912.17 107739.63 101018.73 94949.46 89123.80 82859.17 
 75283.48 66351.16 57246.57 48338.38 40728.44 35543.09 32278.82 29860.94 27764.17 26048.57 
 24332.96 22620.86 21246.57 20001.32 18917.52 17842.17 16803.31 15797.66 14854.03 13999.15 
 13253.93 12592.21 12125.78 11720.09 11210.26 10762.13 10375.01 9988.50  9620.70  9275.55  
 8978.55  8651.96  8300.04  8004.08  7734.44  7484.76  7261.98  7039.56  6813.62  6594.76  
 6364.09  6118.92  5834.16  5525.92  5230.67  4952.67  4672.05  4408.66  4142.51  3881.28  
 3629.41  3388.12  3126.76  2896.59  2692.17  2487.83  2290.81  2112.31  1939.08  1789.75  
 1641.22  1505.51  1379.95  1276.54  1181.41  1091.80  1011.78  938.03   873.19   828.36   
 791.45   754.44   710.10   669.99   632.94   603.00   579.03   559.80   544.05   530.48   
 518.04   507.06   498.25   491.05   484.77   478.92   473.42   468.52   463.50   458.22   
 452.98   447.74   442.23   436.69   431.45   426.55   421.17   415.54   409.94   403.95   
 397.55   391.47   385.40   379.45   372.98   365.99   358.92   352.10   345.02   337.68   
 330.29   322.44   314.27   305.75   296.92   288.18   279.47   261.10   252.93   244.43   
 235.92   227.41   218.98   210.41   201.57   192.60   183.26   174.23   165.00   156.33   
 146.81   130.49   40.51    31.34    32.88    35.06    39.32    45.43    51.96    58.50    
 66.16    74.62    83.26    92.25    101.07   115.90   144.22   117.32   123.09   128.85   
 134.34   139.71   144.70   149.24   153.46   158.56   165.81   176.12   189.51   205.55   
 224.91   
447105.38 441595.16 430923.17 414974.78 393549.22 364604.80 328547.53 288351.65 249792.52 215679.27 
 188033.73 165915.71 148438.09 134674.38 123338.14 115447.38 107582.72 99718.08 93480.44 86752.20 
 79094.00 70326.37 61042.19 51669.81 43506.25 37568.61 33717.34 31111.47 28914.12 26900.12 
 25091.18 23403.81 21905.00 20507.62 19254.78 18162.82 17128.07 16149.68 15238.12 14368.41 
 13590.78 12889.80 12305.17 11849.89 11395.77 10941.66 10534.91 10111.15 9753.64  9403.13  
 9089.98  8760.08  8409.01  8101.38  7807.11  7531.15  7277.19  7041.63  6807.43  6563.54  
 6298.50  6017.07  5732.73  5420.48  5103.11  4821.68  4555.13  4290.74  4031.22  3784.69  
 3552.43  3328.39  3093.70  2849.01  2648.26  2458.44  2283.69  2108.66  1937.68  1789.39  
 1651.00  1517.15  1395.47  1289.57  1201.37  1113.36  1025.34  950.50   885.79   842.08   
 805.39   768.88   726.33   687.68   653.96   625.45   602.42   582.84   566.08   551.13   
 537.67   526.10   517.21   509.56   501.65   494.57   487.83   481.32   475.04   469.11   
 462.87   456.37   450.05   443.85   437.09   430.85   424.61   417.96   410.06   402.11   
 393.90   385.90   377.82   369.87   361.96   354.15   346.54   338.60   330.71   322.89   
 314.68   305.73   296.51   287.72   278.98   267.27   253.45   245.24   236.85   228.42   
 219.53   209.92   201.04   191.55   181.67   171.49   157.16   144.71   135.55   118.26   
 100.90   32.90    30.28    31.57    34.23    39.36    46.14    53.34    60.70    68.81    
 77.63    87.31    97.06    106.41   118.29   152.09   125.68   131.66   137.51   142.31   
 146.19   150.39   154.44   157.98   161.53   165.87   172.38   181.15   192.38   206.33   
 224.91   
447105.38 442493.32 433639.13 420543.64 403276.60 381005.10 354179.19 323698.79 291342.40 261906.19 
 232469.95 203106.57 180372.04 160669.32 144674.65 131512.84 120401.13 110618.05 102192.20 94848.69 
 87341.88 79498.33 71166.36 62722.92 54310.75 46198.74 38861.08 33244.34 29427.16 26677.01 
 24761.01 22848.51 21275.20 19930.38 18749.50 17677.94 16650.22 15774.13 14963.34 14235.50 
 13548.04 12922.48 12376.16 11862.98 11380.79 10919.84 10475.92 10071.24 9702.12  9363.91  
 9039.90  8720.48  8413.01  8123.49  7853.25  7604.21  7369.26  7126.54  6876.25  6601.37  
 6333.65  6055.76  5772.95  5484.04  5192.41  4913.19  4619.07  4331.74  4073.59  3819.12  
 3567.82  3345.77  3135.09  2927.59  2716.39  2505.42  2316.62  2145.61  1987.36  1836.72  
 1691.36  1559.13  1432.23  1318.33  1217.37  1127.74  1046.28  972.62   903.43   852.61   
 815.28   780.61   741.63   703.26   668.71   640.33   615.23   594.25   575.63   558.52   
 543.70   531.33   519.80   509.28   499.24   489.82   481.06   472.42   463.97   456.07   
 448.22   440.20   432.01   424.18   416.81   408.83   400.37   391.39   382.93   374.25   
 365.38   356.70   348.20   339.87   331.72   323.40   315.02   306.53   298.37   290.00   
 281.59   272.97   264.16   255.34   245.40   235.46   225.51   214.28   202.86   192.01   
 181.60   170.44   159.33   144.80   131.76   119.46   107.23   90.16    36.21    25.96    
 26.48    27.72    29.47    34.60    40.53    46.99    53.91    61.26    69.22    77.78    
 87.16    96.81    107.21   133.02   121.67   126.36   132.53   138.42   143.50   148.09   
 152.59   156.48   159.61   162.97   166.84   171.71   177.97   185.94   195.87   208.25   
 224.91   
447105.38 443206.09 436101.59 426278.17 414222.31 399816.21 382425.29 361674.63 337721.19 309964.31 
 280044.79 249584.21 221610.03 196911.76 176098.70 157688.12 142554.10 128887.20 118089.01 107318.42 
 96547.83 87400.66 79239.21 71218.66 63773.43 57164.25 50694.25 44659.61 38864.33 33335.99 
 28528.05 24681.56 21730.56 19574.10 18018.61 16877.69 15957.02 15154.58 14419.34 13746.72 
 13150.89 12555.81 11964.74 11531.37 11099.43 10694.56 10320.44 9980.37  9673.96  9364.15  
 9052.71  8735.13  8419.12  8133.62  7869.95  7606.49  7336.10  7064.44  6788.28  6507.61  
 6229.76  5947.81  5676.03  5408.42  5148.98  4885.15  4623.30  4371.65  4113.16  3863.17  
 3619.35  3371.51  3141.78  2921.71  2716.38  2524.60  2348.81  2175.20  2000.38  1854.05  
 1717.72  1590.43  1468.50  1361.98  1264.62  1182.58  1100.68  1018.78  949.48   891.19   
 850.44   810.05   766.25   725.62   689.80   658.96   631.67   607.16   585.40   565.28   
 546.97   530.56   514.96   500.68   487.15   474.16   461.64   449.53   437.64   426.59   
 415.50   405.02   394.07   383.46   373.03   363.13   353.72   344.42   335.53   326.61   
 317.33   308.49   299.13   289.85   280.35   270.72   261.18   252.03   243.35   233.90   
 224.36   213.50   201.45   189.25   177.23   165.30   153.46   142.02   129.65   114.99   
 100.31   84.74    48.58    24.87    19.13    17.40    17.19    19.18    22.28    25.92    
 29.99    34.53    39.55    45.18    51.36    58.01    65.46    73.71    81.90    99.77    
 105.81   102.04   108.49   115.28   121.30   127.49   133.09   138.34   143.56   148.22   
 151.81   155.49   159.50   164.17   169.44   175.50   182.51   190.89   200.80   212.44   
 224.91   
447105.37 445421.58 441715.72 436356.52 430018.43 422175.51 412368.24 399060.66 381088.67 359876.21 
 336401.39 311305.56 284616.46 258773.53 232930.60 207137.23 185483.95 165931.92 147490.68 130564.16 
 114608.68 99741.22 86615.03 76333.42 68339.78 61931.52 56593.23 52059.77 47917.05 43999.59 
 40188.72 36408.05 32676.62 29061.60 26203.18 23344.76 20491.48 18082.66 16044.24 14386.42 
 13114.56 12264.27 11636.78 11130.78 10705.30 10328.11 9986.02  9660.76  9351.68  9073.49  
 8801.21  8547.15  8291.36  8027.30  7756.16  7497.24  7205.26  6933.73  6639.40  6339.03  
 6042.74  5747.93  5442.35  5150.77  4876.40  4627.32  4381.08  4134.88  3892.88  3663.51  
 3437.97  3228.80  3031.05  2838.34  2659.93  2481.60  2310.48  2148.26  1997.80  1858.24  
 1725.23  1598.93  1482.14  1380.32  1288.10  1202.76  1122.76  1048.77  981.27   919.94   
 866.42   823.65   777.44   732.14   689.64   651.64   617.25   584.84   554.24   526.07   
 500.33   476.10   454.24   433.71   414.99   397.07   380.50   364.08   348.85   335.24   
 322.17   309.44   296.76   284.44   272.69   261.20   248.93   236.67   224.41   212.48   
 200.55   188.21   176.51   165.54   155.17   144.64   133.70   122.33   110.28   97.44    
 83.94    67.97    49.88    30.91    22.24    19.95    14.01    9.54     10.06    11.01    
 12.16    13.43    14.86    16.56    18.52    20.89    23.56    26.82    30.88    35.44    
 40.32    46.05    61.11    57.62    59.28    64.42    70.26    76.38    82.69    88.95    
 95.08    101.07   107.02   112.99   118.61   123.93   129.45   134.38   139.12   143.93   
 148.85   154.14   159.86   166.10   172.93   180.31   188.28   197.17   207.05   218.00   
 224.91   
447105.38 447236.28 446031.54 444333.82 441667.21 436914.93 428042.54 414635.39 401586.37 385289.22 
 366954.54 345147.72 322708.47 299781.95 275203.41 250732.51 226208.79 202179.60 179038.03 154901.63 
 131759.39 114514.65 97322.49 80130.34 70554.53 62804.26 56711.11 51893.42 47468.85 43348.82 
 39652.79 36105.16 32739.41 29399.36 26280.31 23335.78 20750.12 18408.34 16459.48 14752.75 
 13425.26 12293.96 11464.79 10638.42 10022.20 9536.43  9111.58  8742.19  8413.55  8101.12  
 7788.03  7481.81  7196.79  6933.12  6622.06  6304.06  6013.67  5719.04  5420.31  5117.47  
 4823.55  4555.70  4301.12  4077.16  3866.10  3662.88  3462.58  3264.75  3071.82  2887.89  
 2712.58  2547.93  2386.24  2230.64  2085.26  1943.24  1813.44  1688.63  1572.42  1460.34  
 1353.19  1250.96  1161.16  1071.45  991.51   914.77   840.83   772.11   711.07   655.31   
 601.87   559.32   519.88   480.82   443.99   409.08   375.71   345.32   316.90   289.71   
 264.81   242.35   221.26   201.81   182.76   164.94   148.41   132.89   119.38   105.89   
 95.39    85.99    77.55    69.20    59.78    49.95    41.35    34.40    27.05    13.68    
 6.48     5.89     5.89     5.99     6.20     6.42     6.74     7.09     7.47     8.18     
 9.03     9.96     10.98    11.77    13.03    14.14    14.72    14.77    15.55    16.51    
 17.72    19.26    20.86    22.67    25.22    28.83    30.71    33.52    37.67    41.53    
 44.32    49.41    53.28    56.70    61.60    66.63    71.81    77.12    82.41    87.79    
 93.08    98.41    103.74   109.08   114.47   119.92   125.60   131.74   138.45   144.55   
 150.96   157.91   165.44   173.50   182.09   191.38   201.13   211.56   222.07   233.01   
 224.91   
447105.38 449140.82 450242.33 450678.04 449640.78 443088.11 431304.03 420609.47 406886.92 391162.77 
 374567.64 355418.96 336588.20 314830.94 291113.30 265446.23 236904.18 207139.42 177012.94 148692.01 
 126016.81 110189.59 94441.95 78694.30 68321.34 60308.03 53375.57 47757.17 42686.84 38392.70 
 34716.15 31347.27 28062.85 24737.01 21815.10 19202.10 16850.64 14633.01 12868.76 11396.65 
 10371.06 9351.04  8629.19  8050.25  7526.84  7078.23  6744.49  6453.82  6148.36  5828.28  
 5506.59  5178.54  4828.57  4467.41  4140.46  3852.94  3581.11  3333.66  3097.41  2881.60  
 2664.45  2459.17  2266.32  2097.42  1929.99  1773.50  1629.23  1488.23  1353.13  1223.16  
 1109.05  995.11   881.17   778.03   684.13   599.38   519.19   444.98   376.18   316.44   
 263.81   214.97   171.17   134.77   103.20   71.70    40.11    14.88    6.18     5.81     
 5.66     5.50     5.47     5.43     5.40     5.37     5.33     5.30     5.17     5.29     
 5.37     5.42     5.47     5.60     5.89     6.22     6.53     6.75     7.00     7.36     
 7.68     7.93     8.33     8.76     9.11     9.59     10.14    10.71    11.24    11.68    
 12.15    12.62    13.12    13.72    14.42    15.18    16.04    17.01    18.12    19.37    
 20.76    22.27    24.00    25.93    28.04    30.53    33.36    36.57    40.24    44.45    
 49.37    55.12    61.63    68.90    76.85    85.40    94.87    105.00   115.53   126.69   
 138.27   149.84   161.14   172.27   183.72   194.89   205.51   215.66   225.56   235.72   
 245.89   254.24   262.17   269.87   276.64   282.60   288.05   293.54   297.13   299.73   
 301.23   301.46   300.87   298.94   295.51   290.98   285.55   278.63   270.61   261.49   
 224.91   
447105.38 448823.09 449678.69 449747.25 448684.60 442903.68 431138.28 418941.50 406270.73 387933.77 
 370896.84 346125.11 317227.14 287797.16 259768.93 231740.69 203711.24 175556.02 147404.42 123523.54 
 102950.26 85112.83 70109.27 58053.60 50004.96 43973.51 38989.24 34722.47 30394.50 26968.96 
 24164.33 21360.23 18626.04 16057.60 13763.37 11662.87 9745.23  8247.23  6968.86  5948.00  
 5153.18  4504.49  3970.57  3572.13  3210.52  2871.66  2532.79  2194.12  1878.73  1571.10  
 1265.14  1013.76  818.65   665.86   556.34   472.59   400.88   338.40   284.34   243.68   
 203.11   172.30   145.58   122.60   102.71   86.59    71.76    60.15    51.31    44.31    
 38.18    32.77    28.64    25.05    21.14    14.25    12.99    11.85    10.68    9.65     
 8.55     7.49     6.49     5.37     4.18     3.37     3.27     3.34     3.43     3.53     
 3.63     3.76     3.89     4.04     4.20     4.37     4.57     4.78     5.01     5.25     
 5.47     5.71     5.97     6.26     6.57     6.87     7.19     7.53     7.89     8.28     
 8.65     9.06     9.49     9.91     10.37    10.85    11.34    11.84    12.36    12.92    
 13.51    14.17    14.92    15.69    16.59    17.65    18.79    20.05    21.40    22.89    
 24.52    26.27    28.16    30.11    32.33    35.06    38.11    41.44    45.10    49.38    
 54.25    59.36    65.33    72.40    80.14    88.87    98.17    108.20   119.45   130.69   
 142.15   153.91   165.59   177.69   189.45   201.00   212.45   223.40   234.47   244.85   
 254.90   264.30   273.18   281.43   289.20   295.93   301.53   306.99   311.05   313.90   
 315.29   314.82   313.56   310.86   306.61   301.04   293.75   285.26   275.20   263.93   
 224.91   
447105.38 448067.57 447532.47 445345.12 441854.49 435406.02 407605.44 376540.41 350805.90 324280.76 
 294671.09 265570.51 230791.63 198169.11 175504.14 144996.54 122262.42 103049.56 83880.50 70399.77 
 53198.32 42868.97 35942.32 31247.96 27407.10 23968.45 21328.25 18952.06 16979.90 14814.73 
 12670.38 10222.97 7771.89  5650.77  4458.62  3188.97  2560.68  1839.47  1399.86  1102.08  
 806.08   510.08   377.62   281.16   218.94   177.49   144.04   124.15   104.41   84.67    
 73.06    63.53    56.36    50.39    45.77    41.69    38.34    34.96    32.58    30.59    
 28.57    26.77    24.85    22.20    15.32    12.94    12.03    11.30    10.64    10.02    
 9.47     8.96     8.52     8.06     7.60     7.18     6.77     6.33     5.89     5.47     
 5.05     4.60     4.20     3.89     3.74     3.74     3.82     3.94     4.06     4.19     
 4.33     4.48     4.64     4.84     5.03     5.25     5.48     5.72     5.98     6.23     
 6.51     6.79     7.08     7.39     7.71     8.03     8.37     8.72     9.08     9.44     
 9.82     10.20    10.58    11.00    11.44    11.88    12.33    12.81    13.28    13.81    
 14.38    14.97    15.64    16.37    17.18    18.04    18.99    20.07    21.26    22.55    
 23.94    25.43    27.11    29.04    31.17    33.59    36.39    39.61    43.25    47.40    
 52.06    57.54    63.88    70.95    78.69    87.36    96.94    107.13   117.90   129.74   
 142.11   154.75   167.54   180.57   194.39   207.82   220.91   234.01   247.12   259.28   
 270.84   281.33   290.63   299.65   307.44   314.19   319.87   324.22   327.58   329.19   
 329.42   328.32   325.55   321.45   315.00   307.79   298.20   287.14   274.11   259.87   
 224.91   
447105.38 447401.22 445280.55 440238.48 428314.85 392736.94 361952.33 332686.44 298681.23 262409.21 
 226137.20 189906.02 158622.80 127335.11 103568.48 76598.95 65338.57 56535.40 49288.37 43110.74 
 37509.32 33039.18 27850.01 22660.84 17478.83 13125.54 9229.97  7190.98  4743.70  3525.87  
 2308.03  1096.28  685.88   486.53   335.03   254.54   174.39   133.26   110.83   92.30    
 77.92    65.09    55.84    49.95    44.95    39.82    34.90    31.79    28.88    26.78    
 25.07    23.36    22.20    21.23    20.29    18.75    14.83    10.92    9.65     9.24     
 8.95     8.66     8.35     8.04     7.72     7.43     7.20     6.99     6.79     6.59     
 6.42     6.20     5.99     5.75     5.48     5.23     5.01     4.76     4.53     4.31     
 4.09     3.90     3.74     3.67     3.68     3.75     3.84     3.96     4.07     4.20     
 4.34     4.49     4.64     4.83     5.03     5.24     5.46     5.68     5.94     6.18     
 6.43     6.71     6.99     7.29     7.61     7.92     8.24     8.57     8.91     9.26     
 9.59     9.94     10.31    10.69    11.08    11.50    11.94    12.40    12.88    13.38    
 13.90    14.47    15.10    15.75    16.46    17.25    18.16    19.17    20.26    21.49    
 22.84    24.36    26.04    27.87    29.92    32.16    34.75    37.63    40.78    44.39    
 48.61    53.34    58.73    64.93    71.91    79.93    88.74    98.54    109.35   122.05   
 134.76   148.74   163.06   178.59   194.50   210.68   227.14   242.80   258.48   273.27   
 287.05   299.64   311.05   321.17   329.52   336.26   341.46   345.12   347.39   348.02   
 346.93   344.20   339.78   333.30   325.39   315.41   303.92   290.40   274.78   257.82   
 224.91   
447105.38 446430.82 441866.68 433174.80 393118.38 354532.70 321271.38 278586.35 241549.99 197128.58 
 160350.14 127352.11 106120.11 85019.06 63918.02 55678.14 48816.36 43249.34 38474.55 28382.62 
 23604.64 18095.03 12050.45 8669.16  5317.85  2940.74  1146.47  754.63   377.09   266.18   
 203.31   150.54   123.56   96.89    78.51    73.57    57.48    48.34    44.71    38.23    
 32.85    27.59    25.78    24.31    22.42    20.90    19.59    18.34    17.43    16.70    
 15.15    11.76    9.50     8.64     8.08     7.57     7.23     7.17     7.28     7.33     
 7.15     6.95     6.75     6.54     6.37     6.19     6.02     5.82     5.62     5.46     
 5.28     5.11     4.96     4.81     4.66     4.51     4.38     4.24     4.12     4.02     
 3.92     3.84     3.80     3.79     3.81     3.89     3.98     4.08     4.18     4.31     
 4.43     4.57     4.73     4.90     5.09     5.29     5.49     5.70     5.93     6.17     
 6.42     6.68     6.95     7.23     7.52     7.82     8.13     8.45     8.79     9.14     
 9.50     9.88     10.28    10.70    11.12    11.56    12.01    12.46    12.92    13.40    
 13.89    14.40    14.98    15.57    16.19    16.87    17.62    18.46    19.39    20.39    
 21.57    22.96    24.53    26.31    28.32    30.61    33.18    36.08    39.27    42.76    
 46.56    50.94    55.90    61.43    67.65    74.82    83.11    92.35    102.77   114.77   
 127.98   142.31   157.40   173.68   191.56   209.70   227.43   246.79   266.18   284.72   
 301.75   316.89   330.46   342.35   351.82   358.61   363.31   365.59   366.13   364.72   
 361.49   356.53   349.88   341.14   331.15   319.01   304.96   289.26   271.83   252.83   
 224.91   
447105.38 446310.70 441159.59 430465.12 383947.90 340423.13 299838.15 252857.89 205877.45 158944.14 
 120656.42 85041.13 67203.24 58398.89 51370.24 45862.88 41268.59 36323.52 28600.39 20886.32 
 14414.56 11070.85 6015.61  3369.59  743.80   448.88   156.62   154.20   112.34   69.67    
 58.91    37.70    27.32    22.82    19.94    17.97    16.68    15.42    14.51    13.64    
 12.73    12.19    11.53    10.93    10.54    10.22    9.96     9.52     8.22     6.45     
 5.91     5.80     6.21     6.45     6.41     6.25     6.12     5.96     5.66     5.48     
 5.31     5.16     4.97     4.80     4.67     4.57     4.45     4.33     4.23     4.16     
 4.08     4.01     3.95     3.89     3.83     3.78     3.71     3.67     3.61     3.57     
 3.56     3.56     3.57     3.60     3.65     3.72     3.78     3.86     3.94     4.03     
 4.15     4.28     4.41     4.57     4.74     4.93     5.12     5.33     5.54     5.78     
 6.01     6.26     6.51     6.78     7.06     7.35     7.65     7.96     8.28     8.60     
 8.93     9.29     9.67     10.07    10.46    10.88    11.33    11.78    12.26    12.76    
 13.27    13.81    14.39    14.97    15.56    16.21    16.90    17.64    18.41    19.27    
 20.23    21.30    22.53    24.01    25.69    27.71    30.12    32.86    35.91    39.37    
 43.29    47.58    52.25    57.41    63.21    69.75    77.15    85.46    95.09    106.54   
 120.40   134.26   149.98   167.40   186.19   205.59   225.90   245.92   266.84   286.97   
 306.45   324.92   341.78   356.37   368.08   376.86   382.32   384.95   384.54   381.39   
 376.11   369.05   360.34   349.88   337.68   322.96   306.94   289.40   270.21   249.66   
 224.91   
447105.38 445762.28 439287.76 426534.92 376208.89 332434.28 285842.26 234188.57 185915.69 141485.09 
 113547.24 85801.34 58055.45 50652.08 44948.20 40393.10 36684.10 27238.37 21408.14 17154.35 
 11938.32 7605.83  3283.85  819.28   93.68    58.00    29.52    22.18    19.39    18.15    
 17.04    15.57    14.56    13.50    12.36    11.16    10.20    9.37     9.03     8.86     
 8.71     8.38     8.31     7.93     7.44     7.03     6.76     6.34     5.98     5.68     
 5.39     5.15     5.03     4.89     4.76     4.57     4.47     4.39     4.37     4.34     
 4.32     4.29     4.27     4.26     4.27     4.25     4.23     4.22     4.20     4.18     
 4.16     4.13     4.10     4.07     4.02     4.00     3.98     3.94     3.91     3.89     
 3.90     3.90     3.90     3.91     3.91     3.92     3.96     4.02     4.10     4.20     
 4.30     4.43     4.57     4.72     4.88     5.06     5.24     5.44     5.64     5.87     
 6.10     6.33     6.59     6.86     7.15     7.44     7.73     8.05     8.37     8.71     
 9.06     9.43     9.80     10.20    10.61    11.06    11.52    11.98    12.48    12.99    
 13.54    14.10    14.70    15.34    15.98    16.65    17.41    18.21    19.06    19.97    
 20.96    22.05    23.32    24.74    26.41    28.38    30.71    33.48    36.67    40.27    
 44.24    48.60    53.56    58.94    64.84    71.29    78.50    86.82    96.45    107.60   
 120.50   134.91   150.83   168.71   187.64   207.65   228.17   250.26   272.36   292.82   
 312.36   331.33   348.56   363.14   374.97   383.05   387.86   388.99   386.76   381.37   
 373.84   364.55   353.95   342.15   329.45   315.14   299.39   282.71   264.60   245.25   
 224.91   
