IESNA:LM-63-2002
[TEST] 1
[TESTLAB] AOK
[TESTDATE] 2022-05-31
[ISSUEDATE] 2022-05-31 19:00:08
[NEARFIELD] 
[LAMPPOSITION] 0,0
[OTHER] EVERFINE GO-2000A_V1 SYSTEM
[MANUFAC] AOK
[LUMCAT] A
[LUMINAIRE] AOK-1200WiSF-NV-S5-00-5070-3585D-P
[LAMPCAT] B
[LAMP] 5050
[BALLAST] E
[BALLASTCAT] F
[OTHER] 
[OTHER] Gamma(deg)    Fz(lm)      Ft(lm)     %Lum    %Lamp
[OTHER]   0- 10     12153.99    12153.99     7.43     7.43
[OTHER]  10- 20     27577.64    39731.64    24.29    24.29
[OTHER]  20- 30     31981.37    71713.00    43.84    43.84
[OTHER]  30- 40     30836.58   102549.58    62.70    62.70
[OTHER]  40- 50     25292.67   127842.25    78.16    78.16
[OTHER]  50- 60     18086.12   145928.38    89.22    89.22
[OTHER]  60- 70     10258.14   156186.52    95.49    95.49
[OTHER]  70- 80      4462.87   160649.39    98.22    98.22
[OTHER]  80- 90      1491.45   162140.84    99.13    99.13
[OTHER]  90-100       551.99   162692.83    99.47    99.47
[OTHER] 100-110       263.53   162956.36    99.63    99.63
[OTHER] 110-120       181.30   163137.66    99.74    99.74
[OTHER] 120-130       134.40   163272.06    99.82    99.82
[OTHER] 130-140       101.71   163373.77    99.88    99.88
[OTHER] 140-150        76.93   163450.70    99.93    99.93
[OTHER] 150-160        58.21   163508.91    99.96    99.96
[OTHER] 160-170        42.76   163551.67    99.99    99.99
[OTHER] 170-180        15.64   163567.31   100.00   100.00
[OTHER] 
TILT=NONE
1 1.6357e+005 1 181 25 1 2 0.150 0.200 0.000
1.000 1 1188.12
0.0    1.0    2.0    3.0    4.0    5.0    6.0    7.0    8.0    9.0    
 10.0   11.0   12.0   13.0   14.0   15.0   16.0   17.0   18.0   19.0   
 20.0   21.0   22.0   23.0   24.0   25.0   26.0   27.0   28.0   29.0   
 30.0   31.0   32.0   33.0   34.0   35.0   36.0   37.0   38.0   39.0   
 40.0   41.0   42.0   43.0   44.0   45.0   46.0   47.0   48.0   49.0   
 50.0   51.0   52.0   53.0   54.0   55.0   56.0   57.0   58.0   59.0   
 60.0   61.0   62.0   63.0   64.0   65.0   66.0   67.0   68.0   69.0   
 70.0   71.0   72.0   73.0   74.0   75.0   76.0   77.0   78.0   79.0   
 80.0   81.0   82.0   83.0   84.0   85.0   86.0   87.0   88.0   89.0   
 90.0   91.0   92.0   93.0   94.0   95.0   96.0   97.0   98.0   99.0   
 100.0  101.0  102.0  103.0  104.0  105.0  106.0  107.0  108.0  109.0  
 110.0  111.0  112.0  113.0  114.0  115.0  116.0  117.0  118.0  119.0  
 120.0  121.0  122.0  123.0  124.0  125.0  126.0  127.0  128.0  129.0  
 130.0  131.0  132.0  133.0  134.0  135.0  136.0  137.0  138.0  139.0  
 140.0  141.0  142.0  143.0  144.0  145.0  146.0  147.0  148.0  149.0  
 150.0  151.0  152.0  153.0  154.0  155.0  156.0  157.0  158.0  159.0  
 160.0  161.0  162.0  163.0  164.0  165.0  166.0  167.0  168.0  169.0  
 170.0  171.0  172.0  173.0  174.0  175.0  176.0  177.0  178.0  179.0  
 180.0  
0.0    15.0   30.0   45.0   60.0   75.0   90.0   105.0  120.0  135.0  
 150.0  165.0  180.0  195.0  210.0  225.0  240.0  255.0  270.0  285.0  
 300.0  315.0  330.0  345.0  360.0  
131475.61 127443.17 125031.86 121746.74 109783.18 99359.19 88666.48 77052.82 63920.94 53943.39 
 44245.03 34786.97 31752.93 29404.41 27086.35 24930.98 22937.27 17955.44 14058.40 11249.06 
 8452.84  5656.63  3384.93  954.31   163.36   101.76   47.80    25.92    21.97    18.97    
 16.88    15.43    14.34    13.13    12.22    11.42    10.63    10.04    9.54     9.09     
 8.79     8.62     8.40     8.20     8.03     7.80     7.48     7.23     6.91     6.78     
 6.91     7.09     7.23     7.31     7.33     7.32     7.03     6.79     6.51     6.20     
 5.89     5.71     5.52     5.42     5.33     5.27     5.21     5.17     5.13     5.09     
 5.06     5.04     5.03     5.03     5.05     5.08     5.12     5.19     5.28     5.39     
 5.52     5.71     5.92     6.13     6.37     6.67     6.98     7.33     7.71     8.11     
 8.57     9.05     9.54     10.09    10.71    11.38    12.11    12.90    13.77    14.74    
 15.74    16.86    18.03    19.31    20.66    22.06    23.53    25.05    26.71    28.43    
 30.18    32.04    33.92    35.87    37.85    39.94    42.13    44.37    46.78    49.27    
 51.87    54.61    57.49    60.43    63.47    66.62    70.00    73.47    77.07    80.67    
 84.37    88.18    92.09    96.08    100.02   103.97   107.96   112.12   116.40   120.81   
 125.31   129.94   134.95   140.17   145.43   150.98   156.72   162.66   168.83   175.14   
 181.85   188.41   194.73   201.04   207.32   213.23   218.89   224.02   228.50   232.45   
 235.61   238.83   242.04   243.55   244.17   243.75   242.40   239.92   236.31   231.52   
 225.59   219.43   213.44   207.43   201.23   194.38   187.69   177.81   169.71   160.50   
 150.50   
131475.61 127082.77 124538.48 122565.46 116244.18 106258.74 95032.18 83253.92 74491.70 60947.43 
 50634.17 41786.77 34105.82 31029.67 28677.85 26383.05 24332.66 22255.75 17467.17 13802.93 
 10884.49 8532.96  5727.54  3969.38  2211.22  467.62   355.50   243.38   132.03   100.93   
 83.01    64.49    62.23    51.71    35.20    28.04    22.81    19.91    18.32    17.04    
 16.11    15.26    14.21    13.26    12.49    11.92    11.43    10.95    10.51    10.01    
 9.49     8.91     8.24     7.78     7.41     7.15     6.97     6.85     6.73     6.62     
 6.55     6.45     6.32     6.20     6.07     5.94     5.81     5.63     5.48     5.46     
 5.49     5.55     5.63     5.73     5.73     5.75     5.79     5.79     5.84     5.90     
 5.95     6.03     6.18     6.36     6.57     6.81     7.10     7.40     7.73     8.11     
 8.58     9.07     9.57     10.13    10.78    11.49    12.23    13.06    14.01    15.01    
 16.05    17.15    18.33    19.61    20.94    22.33    23.80    25.36    26.99    28.69    
 30.40    32.22    34.15    36.18    38.18    40.32    42.56    44.86    47.22    49.70    
 52.33    55.13    58.02    60.95    63.90    67.01    70.23    73.58    76.91    80.29    
 83.74    87.18    90.71    94.25    97.82    101.46   105.26   109.15   113.15   117.32   
 122.19   127.05   131.92   137.04   142.34   147.94   153.58   159.61   165.69   171.98   
 178.22   184.43   190.46   196.66   202.37   207.84   212.79   217.22   221.26   224.75   
 227.55   230.17   232.45   234.07   234.11   233.58   231.94   229.52   225.73   222.15   
 218.23   213.75   209.40   205.46   199.86   193.99   187.36   180.44   172.90   165.21   
 150.50   
131475.61 127703.41 125141.98 123474.42 121332.81 111138.66 102282.13 93357.99 81603.75 74065.53 
 61851.49 53024.84 45016.55 35680.55 31630.10 29098.01 26712.41 24605.58 22525.63 20500.45 
 16234.08 12941.37 10508.01 8084.40  5660.78  4253.54  2556.90  1062.75  708.41   368.63   
 272.82   201.75   156.70   126.35   107.99   89.76    72.94    62.83    54.39    46.37    
 41.59    37.33    33.59    30.94    28.71    26.69    24.59    22.69    21.18    19.83    
 18.64    17.43    15.79    13.93    12.63    11.92    11.60    11.29    10.91    10.45    
 9.88     9.37     8.91     8.60     8.31     8.07     7.84     7.62     7.42     7.18     
 6.94     6.72     6.52     6.34     6.16     6.01     5.90     5.82     5.77     5.75     
 5.75     5.84     6.01     6.26     6.57     6.92     7.32     7.74     8.21     8.70     
 9.30     9.94     10.66    11.46    12.35    13.33    14.32    15.44    16.62    17.86    
 19.17    20.55    21.97    23.44    25.02    26.65    28.33    30.10    31.94    33.86    
 35.81    37.82    39.97    42.16    44.44    46.77    49.20    51.65    54.20    56.78    
 59.44    62.13    64.92    67.72    70.53    73.42    76.39    79.42    82.49    85.65    
 88.89    92.28    95.77    99.36    103.09   106.95   111.05   115.35   119.76   124.31   
 128.99   133.72   138.59   143.73   149.12   154.56   160.06   165.50   170.82   176.30   
 181.74   187.04   192.05   196.80   201.23   205.57   209.62   213.20   216.41   218.44   
 220.69   222.41   223.63   224.30   224.37   223.74   222.49   220.67   218.48   217.10   
 214.05   211.57   208.66   204.78   200.54   195.54   190.70   184.52   178.33   171.91   
 150.50   
131475.61 128547.47 125883.82 124139.62 122294.37 119975.48 113167.85 105273.19 97689.14 89963.77 
 79739.22 72483.02 64637.09 55987.15 48250.54 42300.68 34369.55 30778.65 28150.80 25999.48 
 24027.71 22055.93 20084.09 18194.41 14799.54 12629.06 10225.68 7762.20  6558.39  4820.17  
 3690.04  2481.30  1277.95  762.82   529.64   386.33   298.65   246.56   194.68   165.58   
 144.83   126.27   110.17   96.11    84.84    74.14    65.26    57.91    51.86    47.05    
 42.83    38.76    34.53    29.80    25.59    23.15    22.25    21.68    20.42    18.59    
 16.43    14.85    13.88    13.22    12.62    11.99    11.48    11.00    10.52    10.05    
 9.64     9.22     8.83     8.46     8.11     7.76     7.42     7.15     6.94     6.81     
 6.79     6.83     6.97     7.28     7.71     8.21     8.74     9.32     9.93     10.64    
 11.40    12.22    13.07    14.05    15.06    16.12    17.24    18.46    19.76    21.11    
 22.53    24.00    25.55    27.22    28.95    30.69    32.49    34.41    36.42    38.45    
 40.46    42.64    44.88    47.22    49.61    52.09    54.68    57.26    59.91    62.62    
 65.54    68.58    71.71    74.80    77.96    81.26    84.71    88.25    91.86    95.57    
 99.37    103.25   107.27   111.36   115.49   119.73   124.07   128.41   132.76   137.16   
 141.71   146.30   150.77   155.27   159.78   164.29   168.67   172.94   177.11   181.17   
 185.13   188.98   192.60   196.21   199.65   202.83   205.70   208.10   210.24   212.09   
 213.55   214.74   215.56   215.98   216.00   215.69   215.23   215.30   214.07   212.53   
 210.82   208.80   206.57   204.17   202.79   199.93   195.57   190.39   184.74   179.66   
 150.50   
131475.61 129672.52 127917.28 125871.15 123666.55 121888.74 120067.82 117831.41 112653.84 106024.54 
 101031.42 95622.87 89079.61 83614.92 76037.47 70006.97 65989.52 58868.85 52863.84 47575.21 
 42461.98 38099.61 32403.16 28954.54 26509.88 24363.37 22414.19 20441.33 18637.28 16951.71 
 15318.01 13797.41 11525.47 9750.18  7980.73  6514.45  5215.70  4312.54  3397.50  2679.42  
 2005.53  1451.68  1142.00  835.27   528.53   413.66   333.14   266.54   216.11   177.72   
 150.10   128.09   111.02   94.00    80.50    69.56    60.24    53.02    48.45    43.04    
 38.84    35.68    32.07    28.82    25.78    23.50    20.42    17.02    15.42    14.53    
 13.80    13.19    12.72    12.06    11.54    11.05    10.51    9.92     9.39     8.91     
 8.58     8.41     8.41     8.78     9.27     9.85     10.51    11.22    11.98    12.80    
 13.70    14.66    15.66    16.78    17.99    19.28    20.63    22.04    23.54    25.18    
 26.87    28.64    30.51    32.44    34.52    36.64    38.85    41.15    43.51    45.95    
 48.44    51.10    53.82    56.64    59.52    62.52    65.58    68.74    71.99    75.36    
 78.74    82.23    85.84    89.52    93.18    96.94    100.80   104.75   108.73   112.69   
 116.64   120.56   124.54   128.56   132.55   136.53   140.52   144.58   148.62   152.62   
 156.53   160.48   164.35   168.24   172.03   175.74   179.40   182.85   185.92   188.71   
 191.44   193.95   196.22   198.20   200.04   201.74   203.33   204.78   206.05   207.09   
 208.12   209.07   209.88   210.53   211.20   211.69   212.80   212.38   211.65   210.73   
 209.84   208.52   207.92   207.62   206.19   203.75   201.15   197.86   194.35   190.03   
 150.50   
131475.61 130910.98 130363.80 129143.91 127064.25 125329.49 123494.82 121771.88 119955.55 117975.49 
 116104.58 114252.03 112264.20 109924.52 107823.99 105488.72 101315.37 97578.38 93170.57 89668.92 
 86608.05 82365.14 78290.96 74385.80 70682.69 66504.55 62259.31 57909.13 53975.07 50477.68 
 47133.24 43281.94 39523.16 36144.42 33076.93 30007.43 27158.85 24664.86 22172.30 19835.41 
 17803.43 16099.03 14562.84 13125.86 11808.50 10451.13 9216.22  8098.57  7043.50  5979.24  
 4986.06  4011.85  3326.19  2640.52  1957.20  1576.84  1296.39  1060.26  852.87   679.54   
 531.66   412.07   322.34   268.92   215.49   162.22   129.00   103.85   84.15    68.43    
 55.36    46.56    40.31    34.73    28.70    23.69    19.49    17.74    16.49    14.89    
 13.18    11.09    9.14     8.06     8.33     8.84     9.39     9.98     10.65    11.38    
 12.19    13.04    14.01    15.05    16.16    17.32    18.54    19.87    21.28    22.80    
 24.35    25.96    27.64    29.48    31.45    33.49    35.62    37.82    40.23    42.71    
 45.27    47.91    50.70    53.55    56.51    59.59    62.72    65.80    69.02    72.40    
 75.87    79.55    83.32    86.97    90.86    94.85    98.90    103.06   107.22   111.37   
 115.71   119.91   124.14   128.26   132.39   136.39   140.47   144.31   148.08   151.76   
 154.65   157.19   160.56   163.95   167.35   170.76   174.03   177.08   179.99   182.84   
 185.55   188.14   190.55   192.92   195.12   197.19   199.19   201.02   202.78   204.43   
 205.97   207.42   208.76   210.14   211.56   212.35   213.04   213.85   214.67   217.07   
 217.00   215.42   213.94   212.73   212.85   212.27   211.14   209.17   206.51   203.41   
 150.50   
131475.61 132164.46 132901.10 132944.55 132243.29 131791.75 130948.96 129976.39 128798.26 127417.07 
 126346.51 124908.48 123723.62 122398.20 120961.65 119545.57 117848.25 116243.23 114706.21 113196.13 
 111201.95 109027.65 107141.45 105377.63 103163.81 100578.67 97891.03 95607.64 92880.65 89970.20 
 86703.88 83909.59 80624.32 77612.73 74498.15 71076.22 67927.35 64644.97 61184.26 58433.51 
 55856.92 53220.08 50599.48 47930.75 45232.27 42728.66 40205.92 37752.03 35400.74 32979.20 
 30671.70 28583.62 26556.27 24615.45 22675.59 20828.13 19208.14 17607.81 16035.17 14555.25 
 13209.46 12019.74 10899.15 9764.57  8765.42  7824.64  6970.63  6150.82  5432.42  4760.29  
 4148.49  3590.32  3100.21  2669.37  2239.31  1871.71  1532.65  1234.55  980.82   767.85   
 581.88   428.69   319.70   210.71   102.20   32.41    13.89    11.75    10.33    9.17     
 8.68     8.83     8.61     8.19     4.88     4.56     4.81     5.19     5.29     5.13     
 5.32     5.57     5.92     6.51     6.48     6.73     7.26     7.67     7.78     8.36     
 9.03     9.11     9.70     10.35    11.26    12.27    12.90    13.56    14.25    14.97    
 15.76    16.59    17.45    18.39    19.39    20.42    21.48    22.61    23.76    24.94    
 26.17    27.46    28.83    30.17    31.51    32.87    34.42    36.04    37.67    39.35    
 41.12    42.92    44.78    46.77    48.83    51.07    53.31    55.65    58.12    60.63    
 63.22    65.90    68.73    71.70    74.72    77.99    81.65    85.58    89.77    94.12    
 98.53    103.18   108.05   113.21   117.79   122.76   127.80   133.26   138.68   146.17   
 150.95   155.28   157.42   161.77   165.75   169.41   173.83   176.43   179.07   181.24   
 150.50   
131475.61 133389.16 135469.91 136807.26 137417.97 138333.16 139029.38 139727.38 140113.63 140448.96 
 140871.86 141379.56 141623.84 141789.89 142059.43 142221.65 142102.99 142153.76 141826.55 141135.95 
 140257.98 139126.41 137688.56 136116.02 134522.38 132564.25 130106.74 127340.54 124288.86 120894.73 
 117605.17 114344.65 110932.42 107250.82 103654.89 99835.60 95926.41 91872.35 88167.71 84883.07 
 81490.74 78373.10 74958.24 71884.51 68869.88 65759.73 62832.83 59871.43 56881.73 54112.06 
 51399.53 48640.06 46119.92 43694.03 41344.97 38928.62 36627.67 34663.86 32722.86 30725.98 
 28700.64 26916.25 25148.78 23553.29 21887.52 20365.01 18863.82 17490.81 16094.91 14770.84 
 13599.49 12441.35 11392.86 10345.18 9297.50  8420.51  7636.75  6907.34  6228.29  5602.00  
 5050.81  4542.43  4084.32  3667.51  3290.38  2940.79  2614.96  2334.75  2097.52  1894.74  
 1706.87  1513.03  1335.77  1200.06  1060.24  920.38   811.69   715.79   621.26   548.18   
 481.63   424.78   376.44   335.03   298.27   265.12   235.23   209.30   186.54   165.74   
 147.57   133.00   120.71   108.43   96.74    83.64    71.34    60.50    52.20    40.44    
 21.26    12.58    11.53    11.96    12.63    13.49    14.40    15.38    16.35    17.24    
 18.59    19.91    21.08    22.24    23.36    24.88    26.56    27.67    28.20    28.92    
 30.05    31.30    33.13    34.69    35.73    37.13    38.43    39.54    40.25    42.53    
 45.62    47.50    48.75    49.25    51.46    53.93    56.63    59.48    62.51    65.91    
 69.58    73.59    77.90    82.55    87.41    92.66    98.06    104.46   110.67   116.89   
 123.25   127.02   132.06   137.46   142.83   148.29   154.13   158.69   163.24   167.47   
 150.50   
131475.61 134534.04 137720.19 140868.95 143557.92 145953.09 148526.00 150925.89 153546.55 155776.66 
 157534.59 158596.11 158988.77 159361.43 158680.31 156889.31 154649.80 152369.06 149658.97 145895.48 
 142113.84 138341.16 134663.25 131224.46 128036.18 124696.90 121455.98 118405.49 115228.09 112454.38 
 109349.70 106289.26 103284.11 100204.12 97237.43 94019.02 90845.14 87716.23 84668.92 81746.84 
 78599.98 75391.96 72394.63 69682.67 67051.27 64459.66 61846.71 59470.52 57142.79 54848.85 
 52373.50 50112.34 48027.04 45933.59 43663.55 41531.91 39600.55 37669.64 35778.72 33883.66 
 31978.09 30198.12 28544.84 26790.68 25278.69 23768.84 22462.61 21069.32 19697.91 18358.91 
 16980.28 15647.64 14327.95 13072.51 11896.75 10674.90 9497.18  8351.49  7393.70  6607.72  
 5828.54  5111.92  4507.06  4020.19  3597.35  3236.75  2956.83  2676.92  2397.91  2205.15  
 2020.63  1826.95  1638.77  1472.70  1325.50  1197.33  1082.30  978.14   888.62   815.11   
 752.14   698.04   650.98   608.71   571.60   540.06   512.61   488.33   466.67   447.63   
 432.67   415.29   397.05   380.27   364.52   350.60   336.85   323.24   309.62   295.13   
 281.25   267.14   251.60   236.07   220.53   204.76   189.58   174.88   160.33   144.55   
 127.57   100.92   82.13    61.23    44.37    40.71    36.13    28.10    17.10    15.62    
 16.46    17.41    18.39    19.47    20.61    21.85    23.10    24.40    25.94    27.99    
 29.94    31.70    33.05    35.23    43.91    42.42    38.78    40.83    43.15    45.79    
 48.71    52.01    55.57    59.58    63.90    68.61    73.64    78.86    84.32    90.23    
 97.36    103.62   108.98   115.79   121.81   130.08   136.22   142.25   148.61   154.87   
 150.50   
131475.61 135623.97 139965.24 144544.43 149081.38 153289.69 157123.04 160632.58 163082.48 165014.07 
 164902.87 163215.57 161194.33 157807.99 153576.88 149495.56 145626.52 141928.48 138420.17 135193.85 
 132002.16 128602.56 125064.95 121289.79 117484.60 113530.87 109704.27 105965.04 102552.25 99354.77 
 96567.53 94352.54 92302.96 90551.17 89118.42 87944.78 86773.27 85521.57 84132.72 82423.08 
 80506.20 78551.32 76572.08 74352.41 72082.50 69732.06 67336.88 64793.04 62284.09 59795.47 
 57105.79 54455.33 52077.36 49886.10 47624.51 45254.15 43047.05 40909.46 38644.22 36301.78 
 34075.00 31987.13 30034.61 28075.42 26020.11 24047.95 22252.74 20391.02 18520.69 16646.29 
 14844.00 13318.90 11900.03 10744.05 9590.67  8579.83  7557.76  6633.80  5776.89  5139.85  
 4589.56  4092.38  3598.47  3198.75  2847.71  2566.50  2330.19  2110.53  1921.87  1774.89  
 1635.18  1491.47  1355.04  1234.52  1135.69  1037.03  960.01   894.08   837.25   787.19   
 744.44   707.62   674.83   646.31   619.71   594.87   572.17   551.69   533.46   515.73   
 498.53   483.34   469.18   455.51   442.23   429.18   416.17   404.25   391.51   380.96   
 370.90   361.24   351.54   340.40   328.32   316.33   304.86   293.18   281.92   270.11   
 258.12   245.69   231.46   218.84   206.62   194.45   182.46   169.94   156.89   142.92   
 128.72   108.55   88.32    47.45    28.33    23.55    21.26    18.69    17.06    18.17    
 19.51    20.93    22.46    24.12    25.84    27.71    29.86    32.25    34.42    36.18    
 39.77    51.39    43.95    46.58    50.22    54.41    59.02    63.83    69.03    74.60    
 80.53    86.75    93.19    100.01   107.14   113.88   120.97   128.36   135.67   143.48   
 150.50   
131475.61 136307.92 141400.38 147198.81 152850.36 158574.76 163382.91 166475.18 167502.89 166087.34 
 163894.79 159802.36 155789.83 151768.06 147991.56 144666.68 141327.79 137498.30 133410.51 128803.57 
 124151.94 119486.65 115044.98 110932.94 107681.40 105177.64 103019.16 101319.63 99893.74 98617.85 
 97201.05 95686.02 93948.30 91971.67 89740.57 87648.49 85115.06 82112.32 78982.26 75897.57 
 72607.02 69465.35 66382.43 63613.30 60991.73 58695.42 56863.56 55065.31 53062.11 50970.40 
 48830.27 46653.49 44419.63 42095.18 39670.43 37446.34 35272.20 33274.00 31267.61 29246.93 
 27368.67 25366.07 23363.20 21340.35 19469.29 17694.11 16105.68 14752.72 13454.10 12301.13 
 11261.22 10287.49 9391.45  8421.33  7585.39  6729.41  6063.04  5471.00  4921.97  4374.69  
 3875.91  3434.55  3051.18  2737.83  2425.43  2188.91  1978.43  1795.21  1640.53  1511.74  
 1406.07  1301.25  1187.25  1084.24  990.54   913.85   850.72   798.22   751.65   710.49   
 675.99   648.44   624.59   603.91   584.95   567.79   551.86   536.65   522.71   509.68   
 497.06   484.84   473.06   462.02   450.85   439.50   427.60   414.06   401.26   388.56   
 376.98   365.95   355.58   345.16   335.01   324.95   315.69   306.86   298.26   290.05   
 282.06   273.95   265.66   257.52   248.32   239.12   229.91   220.77   209.79   198.90   
 186.61   171.78   157.09   139.97   123.06   114.08   108.06   101.84   85.00    38.45    
 28.40    23.84    20.25    18.81    20.38    22.37    24.44    26.72    29.19    31.88    
 34.74    37.72    40.40    44.22    59.13    51.06    52.65    56.61    61.71    66.76    
 72.34    78.28    84.45    90.71    97.14    104.13   111.97   119.88   128.31   137.47   
 150.50   
131475.61 136714.38 142620.75 148711.45 154911.03 160419.56 164508.30 165893.75 164698.45 162239.21 
 157868.47 154017.66 150441.97 147087.31 143742.40 139704.98 135312.00 130419.97 125356.18 120390.11 
 115977.40 112277.31 109605.39 107196.87 105450.87 103921.17 102492.62 100858.31 99130.65 97048.59 
 94589.61 91892.65 89046.43 85721.80 82174.27 78692.51 75219.26 71893.32 68803.85 65759.36 
 62846.38 59994.27 57103.00 54489.57 52431.27 50823.22 49278.64 47754.45 46270.22 44591.25 
 42720.82 40776.38 38890.82 36934.32 35032.79 33123.81 31342.00 29561.29 27760.69 25601.80 
 23456.00 21498.79 19688.56 18074.42 16688.62 15356.63 14148.34 13016.69 12020.92 11103.16 
 10186.03 9203.02  8371.10  7498.19  6820.96  6231.42  5649.54  5029.85  4493.66  3988.03  
 3563.71  3193.70  2849.54  2545.95  2298.19  2079.17  1880.57  1703.91  1554.46  1431.04  
 1328.81  1227.96  1115.67  1003.28  910.46   830.00   766.93   714.04   670.97   632.75   
 599.18   571.21   550.70   532.82   518.18   503.86   490.75   479.14   467.76   456.94   
 446.39   436.01   425.85   415.70   405.85   396.65   388.24   379.51   369.59   359.74   
 350.45   341.69   332.81   324.05   315.73   307.98   300.53   292.79   285.02   277.92   
 270.18   263.56   255.69   248.11   240.97   233.45   219.19   211.35   205.55   198.95   
 192.49   184.02   176.52   169.17   161.99   154.42   147.02   135.84   128.44   121.07   
 110.80   59.78    24.61    22.03    20.50    21.42    23.87    26.73    28.92    31.59    
 34.95    38.57    42.19    45.04    48.46    63.61    61.65    57.53    62.17    67.35    
 72.91    78.76    84.91    90.79    96.91    103.84   110.66   119.12   128.06   136.59   
 150.50   
131475.61 136715.46 142641.40 148683.98 154872.07 159988.60 163490.38 163721.80 162314.86 158794.56 
 154374.30 150622.10 147118.12 143850.62 140150.27 135978.87 131123.74 125997.12 120988.37 116542.92 
 112677.23 110085.21 107687.56 106040.59 104599.56 103163.85 101504.95 99707.98 97611.84 94990.77 
 92130.59 89088.92 85728.41 82190.52 78733.55 75431.98 72217.86 69035.33 65849.42 62709.02 
 59414.22 56423.12 54131.74 52460.96 51028.45 49652.13 48342.26 46955.34 45407.65 43649.18 
 41799.40 39922.19 38064.45 36183.98 34286.59 32398.10 30599.79 28716.09 26635.08 24607.38 
 22581.57 20715.27 19020.92 17550.34 16278.67 14999.71 13855.00 12796.17 11844.89 10961.63 
 10060.71 9125.37  8265.12  7512.61  6848.56  6237.90  5631.00  5005.56  4487.72  4006.18  
 3576.59  3198.06  2897.65  2597.24  2297.67  2066.52  1861.68  1677.89  1525.79  1393.71  
 1290.18  1196.23  1089.11  976.06   876.45   788.42   718.73   662.58   616.34   577.90   
 544.40   515.94   494.03   477.99   465.21   454.16   444.03   434.30   425.31   417.03   
 409.04   401.17   393.30   385.31   377.54   370.03   363.00   356.09   349.19   342.15   
 334.57   327.45   320.77   314.31   308.05   301.50   294.90   288.48   281.97   275.64   
 269.30   262.67   255.64   248.51   240.92   233.35   226.62   213.19   206.37   201.00   
 195.34   189.92   184.00   177.59   170.80   164.18   157.16   150.29   142.94   136.18   
 128.30   116.36   49.75    25.73    23.81    23.48    24.65    27.54    30.85    33.86    
 37.41    41.29    45.40    49.80    53.29    60.94    84.05    61.90    66.65    72.00    
 77.60    83.40    89.39    95.24    101.03   107.53   114.79   122.77   131.32   140.36   
 150.50   
131475.61 136561.39 142384.96 148253.61 153852.28 158093.40 160737.64 160274.02 158928.24 155485.88 
 151382.93 147794.72 144520.22 141584.98 138335.29 134460.31 129969.86 125169.60 120401.49 115954.33 
 111975.58 109151.23 106853.63 104811.00 103459.50 102078.38 100661.74 99061.14 97247.72 95103.83 
 92471.95 89768.98 86740.73 83384.82 79916.48 76635.11 73355.29 70216.47 67184.94 64274.90 
 61295.73 58339.32 55469.17 53127.87 51346.91 49778.24 48383.57 46951.18 45475.41 43870.03 
 42041.40 40198.36 38316.09 36445.18 34586.11 32742.80 30966.15 29193.99 27425.78 25453.97 
 23312.12 21401.43 19608.42 18023.73 16605.27 15340.89 14113.11 13026.50 12007.66 11115.90 
 10225.18 9317.45  8474.25  7594.37  6914.23  6293.91  5706.25  5136.73  4561.02  4057.86  
 3627.15  3256.57  2891.63  2586.73  2322.25  2095.42  1889.96  1707.70  1554.59  1424.36  
 1316.93  1224.38  1118.10  1011.71  915.74   830.13   761.52   708.21   664.49   626.91   
 591.35   561.62   540.06   522.75   508.09   495.36   483.67   472.59   462.46   452.34   
 442.90   434.06   425.53   416.87   408.13   400.15   392.31   385.09   376.32   366.89   
 357.54   348.24   338.72   329.71   321.13   312.26   303.82   294.99   287.12   279.58   
 271.83   263.94   255.42   245.70   236.56   226.23   213.97   210.28   206.75   201.08   
 194.55   186.85   179.57   171.99   164.15   156.23   147.45   135.63   126.81   114.07   
 101.30   39.87    29.95    26.64    24.20    24.83    28.26    32.01    35.83    40.09    
 44.68    49.50    54.45    59.11    65.95    81.97    71.03    74.84    79.21    83.93    
 89.29    94.59    100.22   105.70   111.29   117.34   123.83   130.95   138.51   146.63   
 150.50   
131475.61 135863.94 140995.04 146034.18 151191.53 155808.06 159153.01 160673.80 160077.28 158749.98 
 155556.74 152101.45 148911.59 145772.29 142961.64 139944.97 136304.23 132230.83 127781.30 123122.77 
 118470.38 114128.29 110376.53 107162.90 104687.05 102358.27 100621.78 99254.02 97803.55 96271.17 
 94722.41 93056.90 91065.40 88846.83 86530.46 84172.85 81273.70 78353.24 75276.51 72153.76 
 69087.30 66167.11 63466.23 60872.94 58504.14 56351.99 54410.67 52509.94 50414.29 48303.14 
 46517.93 44654.90 42789.90 40770.99 38757.68 36687.66 34781.14 32859.43 30972.45 29059.51 
 27255.03 25406.56 23558.10 21709.03 19814.62 18097.92 16446.16 14994.19 13783.53 12609.65 
 11544.75 10584.55 9733.03  8894.20  7968.14  7190.14  6382.66  5757.01  5211.18  4701.86  
 4173.48  3704.93  3289.95  2933.68  2634.29  2335.80  2108.67  1907.18  1731.67  1582.20  
 1457.17  1357.27  1257.76  1144.59  1040.10  948.08   872.01   807.83   753.76   707.80   
 669.01   637.13   610.47   587.58   566.85   548.42   531.42   515.99   501.35   487.98   
 475.70   463.92   452.58   441.76   432.35   423.00   412.42   401.29   390.76   379.75   
 368.38   356.73   344.53   333.53   322.92   312.99   303.54   294.30   285.32   276.81   
 268.34   260.29   252.37   244.33   235.59   226.85   218.60   209.30   198.60   188.64   
 178.23   167.49   157.40   146.62   133.45   123.78   113.27   99.23    53.41    33.40    
 30.32    27.58    25.25    27.95    31.48    35.28    39.36    43.59    48.07    52.92    
 58.09    62.73    68.18    80.42    79.14    80.86    85.57    90.65    96.09    101.27   
 106.33   110.81   115.38   120.45   125.88   131.61   137.71   144.05   150.55   157.43   
 150.50   
131475.61 135012.06 139241.38 143417.94 147671.82 152170.69 155981.44 159013.22 160702.43 160399.24 
 159111.11 156734.61 153206.63 149812.87 146276.44 143178.21 139948.27 136960.68 134049.23 130692.17 
 127264.92 123708.93 119856.61 115784.19 111764.34 107814.89 104328.62 101130.73 98062.01 95541.62 
 93364.18 91430.59 89778.79 88424.65 87244.02 86103.69 84917.04 83582.31 82013.51 80283.55 
 78691.65 76918.74 74887.92 72722.70 70622.31 68421.52 66076.10 63717.82 61227.29 58751.28 
 56192.91 53817.07 51563.32 49465.97 47455.49 45511.80 43475.48 41504.39 39491.12 37337.56 
 35198.46 33100.20 31159.44 29235.78 27327.78 25412.17 23527.55 21693.70 19899.13 17992.20 
 16305.90 14605.80 13076.96 11704.27 10584.85 9467.89  8507.74  7592.33  6685.58  5873.80  
 5218.42  4693.95  4178.79  3714.62  3301.48  2945.09  2656.12  2409.51  2186.11  1991.26  
 1821.46  1679.45  1546.73  1408.57  1277.46  1161.31  1071.57  982.10   909.38   844.41   
 788.10   740.10   699.08   663.38   631.54   603.37   577.69   554.66   533.77   513.96   
 495.86   479.09   463.05   447.95   433.66   420.27   406.76   392.82   378.96   365.49   
 352.70   340.76   329.64   319.62   309.66   299.02   287.65   275.68   264.76   254.74   
 245.67   234.83   222.61   209.92   196.62   184.17   172.92   161.97   150.56   137.23   
 120.31   103.37   76.62    45.69    34.67    28.37    26.04    26.77    29.57    32.71    
 36.03    39.51    43.22    47.11    51.05    55.34    59.95    64.50    69.28    77.02    
 87.55    81.94    86.29    90.83    95.38    99.94    104.44   108.93   113.38   117.82   
 122.29   126.85   131.56   136.44   141.28   146.31   151.50   156.95   162.35   167.92   
 150.50   
131475.61 133746.68 136544.78 139604.74 142824.99 146465.48 149898.35 153152.17 155435.34 156650.78 
 157714.24 158003.67 157474.91 156006.54 154181.24 152026.51 149249.45 145706.70 142336.15 139091.47 
 135922.58 132672.70 129478.18 126375.28 123478.66 120628.99 117811.41 115080.46 112138.96 109420.62 
 106869.27 104050.16 101182.75 98160.18 95160.82 92496.01 89551.30 86569.50 83731.18 80889.03 
 78050.76 75215.78 72712.24 70309.61 67898.26 65757.43 63498.66 61452.80 59357.22 57322.12 
 55157.02 53142.99 51118.16 49156.84 47201.36 45198.81 43153.87 41140.65 39186.16 37275.18 
 35434.26 33611.17 31663.18 29959.64 28272.38 26594.54 25141.16 23687.78 22234.84 20822.89 
 19482.90 18072.71 16746.92 15441.24 14172.38 12924.39 11733.70 10470.93 9355.49  8284.74  
 7374.03  6554.55  5798.58  5124.85  4520.32  4043.49  3624.83  3250.53  2933.64  2681.32  
 2429.49  2223.00  2045.23  1848.61  1660.24  1488.26  1341.69  1206.15  1086.02  972.74   
 880.55   801.67   734.12   675.87   626.95   582.91   543.43   509.04   479.18   453.10   
 429.87   409.87   394.95   374.99   356.26   340.03   325.10   308.32   292.68   277.08   
 261.27   245.07   228.88   212.71   199.17   186.29   173.48   161.44   149.21   135.34   
 120.23   102.49   82.62    64.21    48.30    43.52    36.37    25.34    25.13    27.41    
 29.75    32.30    35.06    37.98    41.09    44.37    47.71    51.46    55.51    59.62    
 63.94    68.56    77.05    82.65    79.53    82.54    85.82    89.75    93.73    97.68    
 101.64   105.59   109.55   113.59   117.62   121.70   125.87   129.87   133.89   138.64   
 143.50   147.07   151.13   155.34   159.55   163.85   168.39   172.81   177.15   181.49   
 150.50   
131475.61 132526.77 133893.23 135472.39 137613.79 139811.86 141612.33 142639.58 143239.77 144065.33 
 144788.02 145167.52 145275.69 145319.34 145202.93 145166.99 144747.36 144133.41 143505.91 142691.78 
 141739.82 140386.19 138888.99 136861.54 134514.49 132102.62 129429.40 126889.62 124056.55 121224.40 
 118128.07 114823.23 111477.61 107987.78 104593.92 101356.51 97991.96 94544.65 91230.32 88144.87 
 85116.12 82060.68 78892.29 76010.51 73477.40 70628.41 67792.25 64917.31 62100.44 59385.25 
 56581.12 53947.38 51443.55 48863.21 46321.03 43876.39 41463.75 39175.84 37052.39 34751.24 
 32740.66 30834.84 28975.08 27306.15 25639.05 23956.40 22328.05 20785.73 19298.61 17823.63 
 16465.49 15170.56 13926.22 12706.06 11591.03 10602.79 9615.76  8685.53  7832.69  7082.64  
 6398.14  5772.96  5172.71  4631.75  4160.23  3749.27  3356.61  2985.40  2645.13  2350.07  
 2087.35  1865.91  1690.58  1516.40  1341.83  1186.24  1051.31  916.58   807.30   708.01   
 612.42   535.11   467.52   413.00   364.49   320.74   283.29   250.66   221.77   196.69   
 174.66   155.96   139.46   124.89   111.34   97.81    85.04    73.40    64.30    41.95    
 20.84    17.82    18.55    19.70    21.03    22.48    24.22    26.08    28.19    30.65    
 33.10    35.79    38.54    41.25    44.25    47.20    49.85    51.96    54.61    57.28    
 60.05    62.95    65.79    68.67    71.85    76.05    80.15    82.59    86.50    90.32    
 93.08    95.71    98.48    100.63   103.67   107.18   110.77   114.36   117.87   121.50   
 125.19   128.86   132.53   136.25   140.01   143.91   147.86   151.89   156.05   160.43   
 164.38   168.01   171.70   175.44   179.29   183.17   186.97   190.64   194.04   197.40   
 150.50   
131475.61 131336.68 131383.03 131757.90 132558.47 133039.38 132822.79 131909.66 131198.76 130359.13 
 129223.57 127881.63 126688.63 125421.68 124010.50 122844.80 121319.24 119777.94 118208.63 116642.96 
 115133.02 113321.41 111378.93 109371.30 107410.73 105518.37 103415.65 101113.80 98708.31 96051.10 
 93792.31 90989.66 88017.31 85321.54 82286.73 79375.44 76330.17 73028.56 69987.47 66777.94 
 63276.05 60398.66 57823.28 55354.90 52637.09 49888.51 47195.34 44550.58 42033.76 39601.96 
 37213.37 34945.92 32556.75 30368.86 28183.43 26188.95 24192.73 22335.77 20508.24 18740.74 
 17109.31 15602.91 14248.68 12920.22 11786.46 10655.07 9523.68  8508.04  7593.79  6790.84  
 6011.30  5268.34  4608.33  4008.61  3455.19  2970.05  2516.78  2125.59  1777.88  1466.17  
 1193.60  960.20   727.22   546.55   394.64   270.24   164.85   93.76    23.08    16.55    
 15.57    14.82    14.37    14.59    15.05    15.19    14.06    13.00    13.72    14.67    
 15.66    16.45    17.48    18.70    19.99    21.41    22.54    23.92    25.53    27.06    
 28.48    30.34    32.20    33.91    35.88    38.04    40.48    42.90    45.24    47.64    
 50.09    52.62    55.31    58.07    60.87    63.81    66.86    70.12    73.35    76.69    
 80.06    83.45    86.95    90.49    94.08    97.56    100.95   104.37   107.71   110.96   
 114.12   117.31   120.43   123.63   126.84   130.02   133.16   136.24   139.27   142.25   
 145.19   148.04   150.75   153.39   155.97   158.33   160.56   162.77   164.96   167.04   
 168.99   170.89   172.76   174.57   176.28   177.96   179.58   181.21   182.83   184.24   
 186.56   187.44   187.75   188.04   188.15   188.00   187.60   186.77   185.83   184.56   
 150.50   
131475.61 130421.27 129702.26 129354.46 129367.47 129472.36 129142.76 127706.49 126287.14 124453.08 
 119745.11 116144.66 111423.24 107606.37 105183.29 100742.00 97298.64 92852.26 89259.82 86332.91 
 81584.93 77516.36 73284.57 69173.62 66100.63 62748.56 58603.09 54294.58 50510.52 47218.53 
 43577.01 39956.12 36671.49 33874.10 30442.84 27318.45 24978.39 22641.13 20611.29 18699.10 
 16926.86 15256.95 13775.99 12539.64 11487.04 10368.08 9175.16  8013.98  6821.10  5753.75  
 4716.76  3848.55  3250.96  2653.37  2057.89  1735.02  1443.43  1194.00  978.21   792.95   
 648.35   521.92   419.25   333.95   279.17   224.39   169.78   136.40   111.96   93.60    
 77.57    63.52    55.65    47.32    40.49    35.41    30.39    24.73    20.70    18.36    
 16.71    14.80    13.10    11.69    10.71    9.64     9.12     9.49     10.03    10.63    
 11.29    11.99    12.78    13.63    14.55    15.53    16.57    17.69    18.89    20.21    
 21.60    22.95    24.42    25.94    27.58    29.27    31.03    32.85    34.85    36.88    
 39.03    41.26    43.60    46.04    48.59    51.22    53.93    56.60    59.38    62.33    
 65.34    68.56    71.83    75.04    78.26    81.69    85.32    88.93    92.60    96.33    
 100.14   104.12   108.17   112.18   115.97   119.67   123.32   127.13   130.33   133.11   
 136.53   140.44   144.16   145.85   148.25   151.44   154.60   157.74   160.86   163.83   
 166.76   169.72   172.39   174.99   177.48   179.82   182.07   183.93   185.74   187.39   
 188.75   189.96   191.01   191.98   192.84   193.81   194.41   194.77   195.17   195.46   
 195.43   194.83   193.67   192.31   190.51   188.31   185.72   182.75   179.62   176.07   
 150.50   
131475.61 129748.12 128455.97 127597.11 126947.14 123678.73 117556.07 112553.40 107005.02 101001.69 
 95853.51 88057.21 80306.63 75965.35 69049.24 61608.36 56480.90 49815.92 45330.55 39748.63 
 34244.97 31451.78 29122.71 27166.97 25175.32 23363.49 21641.75 19817.69 18231.49 16668.33 
 14321.47 12341.04 10501.55 8663.67  6928.69  5812.79  4810.51  3808.57  2921.97  2199.91  
 1496.17  1183.80  876.27   568.74   450.32   371.54   306.83   251.97   210.24   172.86   
 144.26   124.23   104.32   84.40    75.34    65.88    58.74    51.29    46.59    42.68    
 39.05    36.48    34.00    31.89    29.93    28.00    26.20    24.19    21.82    19.58    
 17.85    16.73    15.85    14.88    13.87    13.04    12.23    11.43    10.85    10.44    
 10.17    9.97     9.83     9.76     9.76     10.03    10.51    11.13    11.83    12.59    
 13.40    14.29    15.25    16.28    17.39    18.58    19.91    21.29    22.72    24.22    
 25.79    27.50    29.28    31.09    33.05    35.10    37.22    39.39    41.61    43.95    
 46.41    48.90    51.46    54.16    56.98    59.84    62.72    65.64    68.73    71.91    
 75.14    78.37    81.68    85.12    88.64    92.14    95.72    99.40    103.26   107.14   
 111.01   114.86   118.67   122.50   126.36   130.30   134.28   138.25   142.23   146.19   
 150.15   154.17   158.21   162.24   166.28   170.24   174.28   178.21   181.84   185.15   
 188.36   191.35   194.16   196.73   199.18   201.31   203.27   204.81   206.21   207.50   
 208.53   209.54   210.20   210.57   210.56   210.57   210.22   210.02   209.51   208.06   
 206.17   203.90   201.11   198.00   193.77   189.35   184.52   179.08   173.58   167.60   
 150.50   
131475.61 128845.27 127106.37 125584.48 120140.33 111829.91 105965.69 98182.39 89708.52 79964.00 
 72202.42 62782.56 55416.41 47844.88 40168.10 34619.68 31933.06 29652.64 27581.72 25657.38 
 23733.02 21803.05 19159.62 15930.15 13249.57 11153.17 8424.67  7007.59  5192.48  3877.48  
 2562.49  1253.28  706.34   497.10   372.45   299.90   227.35   155.19   126.21   104.93   
 89.06    76.08    66.09    58.87    53.40    48.66    45.29    42.45    39.75    37.47    
 35.54    33.62    31.72    29.85    27.57    25.15    23.74    23.45    23.42    23.00    
 21.97    20.39    18.88    17.69    16.63    15.70    14.89    14.16    13.56    12.85    
 12.20    11.63    11.09    10.60    10.15    9.83     9.63     9.46     9.34     9.34     
 9.34     9.38     9.45     9.56     9.76     10.11    10.61    11.13    11.71    12.34    
 13.05    13.81    14.59    15.50    16.49    17.52    18.60    19.77    21.02    22.34    
 23.71    25.21    26.77    28.44    30.20    31.97    33.83    35.85    37.93    40.07    
 42.21    44.47    46.83    49.27    51.76    54.33    57.01    59.70    62.44    65.24    
 68.25    71.35    74.58    77.76    80.99    84.36    87.89    91.50    95.24    99.09    
 103.00   107.04   111.28   115.59   119.90   124.39   129.09   133.80   138.51   143.35   
 148.32   153.30   158.23   163.21   168.18   173.16   178.04   182.79   187.44   192.02   
 196.43   200.70   204.70   208.71   212.52   215.98   219.22   222.00   224.33   226.05   
 227.49   228.51   229.10   229.29   229.31   228.76   227.76   226.39   224.23   221.58   
 218.02   214.08   209.59   204.09   198.08   191.30   184.32   177.09   169.28   161.36   
 150.50   
131475.61 128398.30 126276.78 123084.80 112251.08 104490.69 95582.90 83296.25 75635.30 63154.68 
 54254.20 46587.90 36863.18 33424.99 31020.20 28757.80 26730.52 24648.20 22557.16 18004.56 
 14309.15 11547.88 8920.46  6294.46  4847.60  3019.77  1105.74  707.65   325.08   235.06   
 166.93   129.66   108.17   86.86    74.27    63.87    56.29    49.80    45.45    41.89    
 38.03    34.70    32.02    29.30    27.50    26.24    24.25    22.96    21.59    20.58    
 19.85    18.99    18.16    17.31    16.47    15.80    14.96    13.97    13.01    12.26    
 11.75    11.37    11.02    10.69    10.40    10.10    9.81     9.58     9.40     9.24     
 9.13     9.03     8.95     8.82     8.73     8.67     8.62     8.60     8.59     8.60     
 8.60     8.65     8.74     8.88     9.09     9.36     9.67     10.05    10.46    10.92    
 11.43    12.02    12.69    13.45    14.26    15.18    16.16    17.20    18.35    19.59    
 20.90    22.29    23.76    25.34    27.01    28.78    30.61    32.53    34.52    36.64    
 38.80    41.13    43.55    45.99    48.50    51.18    53.94    56.64    59.47    62.40    
 65.28    68.21    71.21    74.31    77.37    80.48    83.70    87.03    90.38    93.75    
 97.23    100.76   104.46   108.36   112.42   116.57   120.91   125.52   130.29   135.14   
 140.09   145.15   150.42   155.93   161.58   167.29   173.09   178.90   184.73   190.34   
 195.69   200.80   205.73   210.35   214.76   218.94   222.78   226.38   229.83   233.03   
 235.94   238.34   240.44   242.54   242.31   241.52   239.72   237.43   234.66   231.18   
 227.25   222.45   216.63   209.64   202.45   193.82   185.34   176.43   167.46   157.63   
 150.50   
131475.61 127586.19 125195.77 121805.49 109870.41 99707.72 89135.56 77723.12 66091.20 55404.17 
 46417.83 36160.62 32470.52 30157.62 27980.08 25380.65 22781.21 20170.68 16426.18 13336.70 
 9624.32  7192.67  5029.72  2921.01  827.50   484.90   144.99   97.84    56.25    41.74    
 31.00    24.92    21.98    20.06    18.54    17.49    16.62    15.97    15.27    14.52    
 13.88    13.36    12.86    12.40    12.12    11.85    11.59    11.37    11.19    11.05    
 11.04    10.92    10.61    10.13    9.45     8.82     8.35     7.99     7.78     7.79     
 7.90     7.91     7.90     7.77     7.57     7.38     7.18     6.99     6.78     6.56     
 6.37     6.24     6.16     6.11     6.10     6.11     6.16     6.25     6.35     6.46     
 6.60     6.75     6.92     7.11     7.31     7.54     7.80     8.10     8.43     8.80     
 9.22     9.70     10.20    10.75    11.38    12.06    12.81    13.63    14.52    15.52    
 16.56    17.66    18.86    20.16    21.55    22.99    24.52    26.13    27.87    29.61    
 31.45    33.42    35.48    37.62    39.80    42.06    44.48    46.94    49.47    52.07    
 54.84    57.83    60.92    63.99    67.12    70.35    73.78    77.27    80.85    84.44    
 87.99    91.60    95.32    99.09    102.88   106.78   110.89   115.12   119.42   124.46   
 129.50   134.45   139.57   144.94   150.46   156.24   162.15   168.32   174.58   180.93   
 187.36   193.62   199.70   205.70   211.51   217.33   222.92   227.51   231.89   235.73   
 239.02   241.99   244.30   245.95   245.82   245.72   244.57   242.33   239.26   235.32   
 230.80   225.63   219.54   212.14   204.65   196.75   187.34   177.64   167.49   157.20   
 150.50   
131475.61 127443.17 125031.86 121746.74 109783.18 99359.19 88666.48 77052.82 63920.94 53943.39 
 44245.03 34786.97 31752.93 29404.41 27086.35 24930.98 22937.27 17955.44 14058.40 11249.06 
 8452.84  5656.63  3384.93  954.31   163.36   101.76   47.80    25.92    21.97    18.97    
 16.88    15.43    14.34    13.13    12.22    11.42    10.63    10.04    9.54     9.09     
 8.79     8.62     8.40     8.20     8.03     7.80     7.48     7.23     6.91     6.78     
 6.91     7.09     7.23     7.31     7.33     7.32     7.03     6.79     6.51     6.20     
 5.89     5.71     5.52     5.42     5.33     5.27     5.21     5.17     5.13     5.09     
 5.06     5.04     5.03     5.03     5.05     5.08     5.12     5.19     5.28     5.39     
 5.52     5.71     5.92     6.13     6.37     6.67     6.98     7.33     7.71     8.11     
 8.57     9.05     9.54     10.09    10.71    11.38    12.11    12.90    13.77    14.74    
 15.74    16.86    18.03    19.31    20.66    22.06    23.53    25.05    26.71    28.43    
 30.18    32.04    33.92    35.87    37.85    39.94    42.13    44.37    46.78    49.27    
 51.87    54.61    57.49    60.43    63.47    66.62    70.00    73.47    77.07    80.67    
 84.37    88.18    92.09    96.08    100.02   103.97   107.96   112.12   116.40   120.81   
 125.31   129.94   134.95   140.17   145.43   150.98   156.72   162.66   168.83   175.14   
 181.85   188.41   194.73   201.04   207.32   213.23   218.89   224.02   228.50   232.45   
 235.61   238.83   242.04   243.55   244.17   243.75   242.40   239.92   236.31   231.52   
 225.59   219.43   213.44   207.43   201.23   194.38   187.69   177.81   169.71   160.50   
 150.50   
