IESNA:LM-63-2002
[TEST] 1
[TESTLAB] AOK
[TESTDATE] 2022-05-27
[ISSUEDATE] 2022-05-27 13:51:43
[NEARFIELD] 
[LAMPPOSITION] 0,0
[OTHER] EVERFINE GO-2000A_V1 SYSTEM
[MANUFAC] AOK
[LUMCAT] A
[LUMINAIRE] AOK-600WiSF-HV-S5-00-5070-15D-P
[LAMPCAT] B
[LAMP] 5050
[BALLAST] E
[BALLASTCAT] F
[OTHER] 
[OTHER] Gamma(deg)    Fz(lm)      Ft(lm)     %Lum    %Lamp
[OTHER]   0- 10     37293.82    37293.82    45.45    45.45
[OTHER]  10- 20     22094.74    59388.57    72.37    72.37
[OTHER]  20- 30      7956.61    67345.18    82.07    82.07
[OTHER]  30- 40      4025.10    71370.28    86.97    86.97
[OTHER]  40- 50      3643.75    75014.03    91.42    91.42
[OTHER]  50- 60      3251.43    78265.47    95.38    95.38
[OTHER]  60- 70      2385.80    80651.27    98.29    98.29
[OTHER]  70- 80      1085.92    81737.20    99.61    99.61
[OTHER]  80- 90       142.53    81879.72    99.78    99.78
[OTHER]  90-100         2.60    81882.32    99.79    99.79
[OTHER] 100-110         4.24    81886.56    99.79    99.79
[OTHER] 110-120         6.39    81892.95    99.80    99.80
[OTHER] 120-130         8.28    81901.23    99.81    99.81
[OTHER] 130-140        10.24    81911.48    99.82    99.82
[OTHER] 140-150        18.60    81930.08    99.84    99.84
[OTHER] 150-160        47.75    81977.83    99.90    99.90
[OTHER] 160-170        58.80    82036.62    99.97    99.97
[OTHER] 170-180        21.84    82058.47   100.00   100.00
[OTHER] 
TILT=NONE
1 82058 1 181 25 1 2 0.150 0.200 0.000
1.000 1 597.607
0.0    1.0    2.0    3.0    4.0    5.0    6.0    7.0    8.0    9.0    
 10.0   11.0   12.0   13.0   14.0   15.0   16.0   17.0   18.0   19.0   
 20.0   21.0   22.0   23.0   24.0   25.0   26.0   27.0   28.0   29.0   
 30.0   31.0   32.0   33.0   34.0   35.0   36.0   37.0   38.0   39.0   
 40.0   41.0   42.0   43.0   44.0   45.0   46.0   47.0   48.0   49.0   
 50.0   51.0   52.0   53.0   54.0   55.0   56.0   57.0   58.0   59.0   
 60.0   61.0   62.0   63.0   64.0   65.0   66.0   67.0   68.0   69.0   
 70.0   71.0   72.0   73.0   74.0   75.0   76.0   77.0   78.0   79.0   
 80.0   81.0   82.0   83.0   84.0   85.0   86.0   87.0   88.0   89.0   
 90.0   91.0   92.0   93.0   94.0   95.0   96.0   97.0   98.0   99.0   
 100.0  101.0  102.0  103.0  104.0  105.0  106.0  107.0  108.0  109.0  
 110.0  111.0  112.0  113.0  114.0  115.0  116.0  117.0  118.0  119.0  
 120.0  121.0  122.0  123.0  124.0  125.0  126.0  127.0  128.0  129.0  
 130.0  131.0  132.0  133.0  134.0  135.0  136.0  137.0  138.0  139.0  
 140.0  141.0  142.0  143.0  144.0  145.0  146.0  147.0  148.0  149.0  
 150.0  151.0  152.0  153.0  154.0  155.0  156.0  157.0  158.0  159.0  
 160.0  161.0  162.0  163.0  164.0  165.0  166.0  167.0  168.0  169.0  
 170.0  171.0  172.0  173.0  174.0  175.0  176.0  177.0  178.0  179.0  
 180.0  
0.0    15.0   30.0   45.0   60.0   75.0   90.0   105.0  120.0  135.0  
 150.0  165.0  180.0  195.0  210.0  225.0  240.0  255.0  270.0  285.0  
 300.0  315.0  330.0  345.0  360.0  
566729.31 565934.28 560812.86 550531.36 531234.59 496907.61 438521.05 363370.58 287421.94 224570.10 
 175734.10 140922.94 115501.18 98717.89 82027.82 70259.42 60372.22 52026.36 45103.47 39325.20 
 34264.83 29762.89 25623.58 21939.65 18601.32 15860.81 13617.92 11832.80 10476.09 9124.80  
 8193.96  7463.97  6864.29  6453.06  6201.30  6029.19  5892.86  5729.60  5521.24  5296.62  
 5088.63  4910.51  4761.23  4637.56  4527.83  4415.45  4296.22  4173.70  4053.15  3921.37  
 3793.45  3676.03  3580.40  3493.45  3400.99  3292.82  3186.07  3093.79  3011.30  2932.13  
 2852.60  2756.45  2639.83  2479.27  2312.94  2143.75  1984.15  1833.89  1693.77  1560.59  
 1430.29  1295.61  1163.77  1031.97  900.16   789.24   677.36   573.58   473.23   387.73   
 304.08   232.60   170.46   126.10   96.10    66.28    44.30    25.23    8.98     3.71     
 2.87     3.00     2.79     2.86     3.02     3.19     3.39     3.58     3.79     4.01     
 4.24     4.49     4.74     5.01     5.28     5.55     5.83     6.13     6.43     6.73     
 7.04     7.35     7.67     8.00     8.34     8.69     9.03     9.39     9.75     10.13    
 10.50    10.89    11.28    11.66    12.05    12.44    12.84    13.24    13.63    14.01    
 14.40    14.78    15.17    15.58    16.02    16.52    17.10    17.86    18.78    19.87    
 21.21    22.84    24.83    27.43    30.71    34.82    40.02    46.59    54.78    64.80    
 77.32    92.11    108.64   126.38   145.31   165.66   186.64   207.51   228.30   249.78   
 271.25   289.98   307.68   323.05   335.88   345.97   353.21   357.52   359.00   357.59   
 353.34   346.07   336.57   325.26   312.61   299.03   284.97   270.55   256.18   241.93   
 226.26   
566729.31 565969.49 560864.00 550620.68 531273.71 495869.47 437470.17 363127.15 301342.62 239558.10 
 177990.58 143622.76 117737.38 98362.84 83545.09 71950.95 62256.98 54167.23 47511.55 41964.18 
 37002.23 32429.81 28260.49 24690.58 21126.30 18213.82 15763.51 13668.93 11973.34 10523.18 
 9278.54  8182.39  7302.76  6743.16  6419.12  6173.14  5948.42  5711.13  5465.37  5219.64  
 5020.35  4870.78  4744.33  4628.90  4530.15  4447.10  4358.33  4262.01  4178.62  4097.54  
 4004.73  3907.40  3801.68  3702.69  3605.81  3504.50  3403.61  3305.40  3189.24  3049.60  
 2901.57  2762.79  2624.00  2485.15  2340.95  2209.35  2078.21  1948.72  1824.95  1699.99  
 1571.83  1430.92  1292.36  1135.17  994.94   854.37   733.14   616.33   508.51   415.56   
 329.01   254.13   179.48   130.31   95.24    66.67    44.42    25.71    9.82     3.73     
 3.12     3.33     3.01     3.00     3.01     3.12     3.29     3.48     3.67     3.90     
 4.13     4.38     4.63     4.90     5.17     5.45     5.71     6.00     6.30     6.59     
 6.89     7.20     7.52     7.84     8.16     8.49     8.85     9.21     9.56     9.90     
 10.27    10.64    11.03    11.42    11.79    12.17    12.57    12.96    13.36    13.74    
 14.13    14.53    14.94    15.39    15.92    16.51    17.21    18.04    19.03    20.21    
 21.65    23.39    25.48    28.01    31.17    35.18    40.15    46.56    54.65    64.79    
 77.09    91.43    107.15   125.95   144.76   164.88   185.68   206.24   227.78   248.50   
 268.51   287.64   304.84   320.40   333.12   342.98   349.96   354.15   355.39   353.66   
 349.04   341.92   332.71   321.66   309.65   296.81   283.36   269.80   254.73   239.29   
 226.26   
566729.31 564725.41 558569.55 546512.73 523833.61 483855.28 421170.44 345712.73 274077.77 217332.18 
 174493.78 142603.55 117446.23 100574.06 83791.55 72163.02 63026.49 55796.93 49890.71 44843.32 
 40203.80 35807.63 31549.51 27678.85 24242.32 21288.16 18729.32 16554.83 14620.65 12935.86 
 11529.27 10126.06 8722.86  7692.79  6935.23  6366.26  5929.26  5607.49  5368.30  5197.76  
 5066.76  4969.28  4869.39  4763.01  4666.24  4581.27  4507.73  4437.95  4352.87  4253.09  
 4144.98  4040.93  3944.18  3825.75  3688.53  3553.50  3426.56  3300.53  3184.59  3076.02  
 2971.16  2868.24  2754.58  2631.52  2497.87  2351.20  2190.67  2030.78  1876.54  1720.76  
 1568.19  1423.32  1281.34  1142.66  1004.03  865.39   745.12   629.80   523.43   421.55   
 334.92   252.54   184.29   128.07   95.27    62.77    40.23    22.03    7.89     3.77     
 3.53     3.43     3.31     3.26     3.27     3.41     3.57     3.76     3.98     4.22     
 4.48     4.72     4.99     5.27     5.54     5.82     6.10     6.39     6.70     7.00     
 7.30     7.62     7.94     8.26     8.58     8.92     9.26     9.60     9.95     10.31    
 10.67    11.04    11.41    11.78    12.16    12.53    12.93    13.32    13.72    14.12    
 14.56    15.03    15.55    16.09    16.75    17.51    18.38    19.43    20.60    22.01    
 23.63    25.51    27.74    30.54    34.04    38.41    43.90    50.69    59.00    69.31    
 82.01    96.53    112.64   129.89   147.87   167.12   188.21   209.32   229.92   250.42   
 270.92   289.90   306.39   320.56   332.71   341.36   347.01   349.64   349.02   345.67   
 339.55   331.53   321.72   311.91   300.25   287.83   274.49   260.93   246.71   232.18   
 226.26   
566729.31 564557.85 558337.45 546263.34 523224.99 481264.60 419942.03 347596.77 291035.11 234473.48 
 178108.09 146336.32 121504.09 101131.00 84921.86 72478.67 63080.80 55697.40 49831.68 44892.67 
 40445.79 36211.94 32120.62 28354.46 25228.90 22107.92 19503.22 17238.71 15294.86 13537.32 
 11921.69 10362.71 8995.28  7861.87  6999.36  6359.81  5927.74  5647.36  5438.86  5256.58  
 5106.92  4983.60  4875.88  4784.46  4703.58  4622.19  4528.25  4436.79  4348.89  4253.23  
 4149.80  4037.07  3925.68  3827.17  3738.55  3652.65  3551.58  3429.76  3297.37  3160.10  
 3021.30  2891.34  2755.90  2620.46  2485.07  2356.05  2229.01  2098.57  1956.76  1813.21  
 1658.44  1504.06  1366.99  1231.23  1091.74  952.93   821.01   696.49   576.03   472.52   
 376.44   302.35   228.27   154.40   104.30   68.89    44.71    26.20    10.98    3.72     
 3.39     3.29     3.16     3.11     3.16     3.26     3.43     3.65     3.89     4.15     
 4.40     4.66     4.92     5.21     5.49     5.76     6.05     6.34     6.65     6.96     
 7.27     7.58     7.90     8.24     8.58     8.92     9.27     9.62     9.96     10.32    
 10.69    11.08    11.47    11.85    12.23    12.62    13.03    13.45    13.88    14.35    
 14.86    15.39    15.96    16.59    17.30    18.10    19.05    20.16    21.36    22.80    
 24.55    26.54    28.98    31.91    35.53    40.11    45.72    52.73    61.22    71.49    
 83.61    97.31    113.77   130.24   148.40   167.59   187.90   207.97   228.89   249.16   
 268.76   286.91   303.03   317.21   328.39   336.53   341.21   342.77   341.25   337.28   
 331.37   324.32   315.60   305.43   294.39   282.64   270.01   257.07   243.35   229.52   
 226.26   
566729.31 563463.63 556193.37 541963.45 515463.08 471197.08 409555.29 338117.43 271510.51 217062.32 
 175059.42 143107.32 117741.63 99716.22 81770.18 68982.29 59212.30 51343.70 44890.63 39436.14 
 34775.62 30427.77 26518.56 22965.69 19899.99 17203.11 14929.66 13017.50 11639.80 10268.89 
 8897.98  7963.21  7216.14  6688.09  6332.94  6076.88  5883.03  5720.21  5585.23  5457.04  
 5331.76  5208.94  5097.88  4988.57  4876.86  4763.91  4653.78  4534.77  4413.64  4298.56  
 4195.17  4100.11  4006.37  3911.43  3811.21  3703.65  3593.58  3485.90  3364.49  3236.85  
 3102.27  2960.30  2814.63  2681.05  2556.11  2429.65  2298.33  2162.49  2027.82  1881.82  
 1726.39  1568.42  1416.92  1275.59  1136.64  997.73   858.81   729.02   614.10   506.93   
 406.52   309.97   232.35   167.53   126.90   86.57    46.25    25.92    11.85    3.89     
 3.32     3.22     3.16     3.21     3.34     3.55     3.78     4.02     4.28     4.54     
 4.80     5.07     5.34     5.62     5.91     6.20     6.49     6.80     7.11     7.43     
 7.74     8.07     8.41     8.75     9.09     9.45     9.80     10.15    10.53    10.90    
 11.28    11.64    12.03    12.41    12.79    13.18    13.58    13.98    14.41    14.86    
 15.33    15.84    16.39    17.05    17.81    18.65    19.64    20.78    22.14    23.76    
 25.61    27.80    30.46    33.80    37.98    43.14    49.37    56.86    65.66    76.24    
 89.01    103.26   118.95   135.74   153.26   171.57   191.80   212.50   233.05   253.59   
 270.63   287.60   302.08   314.01   323.65   330.21   333.99   335.03   334.65   331.16   
 325.54   318.16   309.49   299.92   289.44   278.04   266.02   253.47   240.47   227.04   
 226.26   
566729.31 563583.25 556573.48 543204.64 517940.00 475907.84 418913.48 351534.92 294783.43 238031.97 
 181454.81 146737.84 119719.44 98449.13 81665.06 68488.78 57907.46 49105.57 41790.13 35873.85 
 30892.65 27048.23 23203.81 19366.87 16421.11 13914.84 11834.49 10250.80 9086.84  8234.17  
 7600.94  7122.91  6750.40  6459.18  6219.12  6024.89  5869.54  5748.00  5637.78  5523.91  
 5410.18  5310.99  5220.76  5114.62  5001.48  4877.85  4762.75  4647.18  4524.71  4402.34  
 4290.22  4190.37  4099.44  4009.13  3913.63  3810.82  3707.17  3601.00  3485.00  3359.65  
 3232.70  3109.00  2984.92  2863.64  2739.04  2614.44  2489.78  2358.72  2222.08  2078.34  
 1926.93  1777.52  1623.47  1467.73  1309.81  1151.58  1000.26  864.09   734.94   612.49   
 497.50   390.36   310.32   230.27   150.50   99.66    60.63    35.04    18.38    6.08     
 3.59     2.92     2.87     3.07     3.29     3.53     3.76     4.00     4.26     4.52     
 4.79     5.06     5.34     5.62     5.92     6.21     6.52     6.82     7.15     7.47     
 7.78     8.11     8.46     8.81     9.16     9.53     9.88     10.25    10.61    11.00    
 11.38    11.77    12.17    12.56    12.93    13.31    13.69    14.07    14.47    14.87    
 15.30    15.78    16.30    16.88    17.54    18.28    19.20    20.31    21.58    23.12    
 25.03    27.31    30.12    33.54    37.77    43.02    49.38    57.04    66.08    76.76    
 89.07    102.87   119.01   135.18   153.04   171.70   191.14   210.24   229.55   247.93   
 265.20   280.97   294.80   307.04   316.98   324.71   330.07   333.62   333.82   332.26   
 328.63   323.01   315.59   306.55   297.09   285.75   273.17   260.24   246.83   233.24   
 226.26   
566729.31 563715.74 556850.31 544298.28 521211.12 482860.72 431137.96 369111.95 304385.41 248889.09 
 193573.87 155131.93 125726.69 102646.81 84904.86 70958.91 59724.36 50262.82 42525.16 36281.13 
 31150.75 27295.22 23439.69 19592.89 16528.05 13927.09 11868.61 10277.82 9118.57  8284.58  
 7688.95  7230.67  6870.35  6583.10  6350.61  6147.88  5979.06  5831.57  5700.76  5590.01  
 5488.94  5410.04  5299.13  5183.29  5083.52  4984.79  4872.61  4749.47  4625.92  4501.33  
 4387.85  4286.63  4196.44  4113.13  4029.94  3942.36  3847.21  3741.40  3626.45  3500.60  
 3380.23  3259.46  3137.60  3023.23  2912.88  2783.68  2643.38  2503.08  2362.77  2221.25  
 2072.93  1918.95  1757.57  1596.84  1438.01  1282.44  1128.76  974.65   831.71   696.71   
 572.75   453.50   347.37   263.87   180.63   118.72   71.17    39.38    18.66    5.99     
 1.04     0.93     0.95     1.01     1.08     1.15     1.22     1.31     1.40     1.50     
 1.61     1.73     1.86     2.00     2.16     2.31     2.48     2.66     2.84     3.02     
 3.22     3.41     3.61     3.81     4.01     4.22     4.43     4.63     4.83     5.03     
 5.23     5.42     5.63     5.81     6.01     6.19     6.39     6.57     6.77     6.96     
 7.17     7.39     7.61     7.86     8.14     8.44     8.79     9.19     9.65     10.20    
 10.83    11.57    12.44    13.52    14.74    16.20    17.88    19.79    21.94    24.40    
 27.11    30.09    33.40    36.98    40.81    44.96    49.33    53.92    58.81    63.74    
 68.80    73.97    79.15    84.47    89.73    95.11    100.46   105.91   112.45   117.94   
 123.41   129.17   135.45   142.34   150.18   159.41   170.06   182.02   195.53   209.99   
 226.26   
566729.31 562793.30 555198.79 541843.11 519003.95 481877.51 431315.08 370111.84 306821.95 246589.98 
 195461.91 154856.08 124862.54 107090.98 89417.99 71745.00 60773.67 51847.82 44664.70 38595.28 
 33427.27 28866.80 24763.28 21068.65 17813.68 15045.36 12822.55 11420.16 10023.85 8627.54  
 7912.09  7367.19  6946.90  6616.52  6365.45  6171.52  6018.73  5889.96  5766.46  5640.29  
 5526.32  5430.22  5335.86  5228.49  5119.03  5004.43  4882.68  4756.91  4628.75  4505.31  
 4388.15  4280.57  4181.37  4079.88  3968.51  3858.23  3753.09  3647.60  3530.26  3401.77  
 3267.66  3138.20  3011.98  2883.81  2755.63  2629.02  2503.62  2378.62  2237.04  2085.84  
 1928.65  1771.80  1613.41  1451.43  1287.04  1141.90  996.93   851.97   719.17   597.66   
 484.57   382.35   286.43   206.59   143.51   98.88    54.43    29.58    14.73    3.33     
 1.19     1.14     1.14     1.17     1.19     1.24     1.30     1.38     1.46     1.56     
 1.67     1.79     1.91     2.05     2.19     2.35     2.51     2.67     2.84     3.02     
 3.22     3.40     3.59     3.79     3.99     4.19     4.37     4.57     4.76     4.96     
 5.15     5.34     5.52     5.72     5.91     6.11     6.29     6.48     6.68     6.89     
 7.10     7.33     7.57     7.84     8.15     8.50     8.89     9.33     9.84     10.40    
 11.10    11.91    12.86    13.97    15.28    16.83    18.57    20.53    22.80    25.28    
 28.11    31.12    34.40    38.03    41.86    45.87    50.20    54.73    59.37    64.06    
 68.88    73.78    78.70    83.77    88.77    93.89    99.03    104.25   109.53   115.91   
 121.56   127.50   133.91   140.84   148.72   158.07   168.81   181.10   194.70   209.76   
 226.26   
566729.31 563213.66 556015.60 544233.92 524266.74 491933.19 446784.86 390432.64 327021.03 272986.95 
 218952.90 165142.73 131702.46 107296.49 88974.33 75288.46 64561.01 56046.41 49039.63 43255.50 
 38178.02 33471.97 29185.80 25458.25 21737.98 18657.19 16053.83 13842.62 11966.92 10449.20 
 9220.24  8217.15  7404.80  6812.37  6429.82  6172.41  5964.46  5792.36  5643.40  5512.67  
 5385.59  5267.12  5147.18  5030.81  4916.11  4808.99  4707.77  4602.85  4486.47  4370.54  
 4258.51  4142.95  4029.04  3921.35  3813.37  3705.77  3596.15  3483.77  3371.30  3250.82  
 3121.87  2979.50  2837.20  2701.75  2576.29  2450.72  2315.66  2182.08  2039.77  1896.63  
 1745.34  1591.76  1442.82  1304.71  1165.19  1031.51  888.63   753.24   637.42   529.95   
 426.98   329.99   254.09   178.45   123.61   80.25    48.40    26.98    14.60    3.11     
 1.77     1.62     1.45     1.23     1.04     1.06     1.11     1.18     1.26     1.35     
 1.44     1.54     1.65     1.77     1.91     2.05     2.19     2.35     2.51     2.68     
 2.85     3.02     3.21     3.40     3.60     3.79     3.98     4.17     4.36     4.55     
 4.74     4.94     5.13     5.32     5.50     5.69     5.88     6.08     6.28     6.48     
 6.70     6.95     7.20     7.48     7.79     8.13     8.53     8.98     9.51     10.09    
 10.75    11.52    12.39    13.43    14.63    16.04    17.66    19.55    21.68    24.12    
 26.72    29.64    32.93    36.50    40.32    44.46    48.86    53.40    58.27    63.24    
 68.36    73.56    78.77    84.07    89.34    94.62    99.88    105.14   110.39   115.85   
 121.42   127.39   134.65   141.76   149.73   158.88   169.55   181.55   195.07   209.84   
 226.26   
566729.31 562480.29 554695.40 542828.96 524632.78 495051.93 451404.68 394263.39 330589.01 265950.74 
 208183.79 162117.02 128421.92 109546.19 90789.99 72033.80 61950.93 54169.03 47920.49 42456.08 
 37599.76 33098.55 28938.35 24997.22 21451.02 18415.24 15910.49 13808.89 12030.23 10666.55 
 9306.88  8271.37  7392.94  6742.92  6317.18  6021.63  5805.26  5626.59  5465.40  5309.07  
 5165.51  5035.62  4918.98  4819.99  4736.29  4647.55  4547.60  4437.20  4343.46  4247.46  
 4143.35  4033.72  3917.28  3809.52  3712.20  3619.36  3517.79  3401.40  3270.15  3130.80  
 2995.77  2863.54  2730.16  2595.59  2455.42  2326.76  2200.98  2070.85  1927.13  1782.51  
 1631.89  1482.03  1346.90  1209.12  1074.98  940.88   814.38   686.10   563.17   458.29   
 364.17   284.47   211.66   149.08   107.73   66.59    42.44    25.63    10.73    2.22     
 1.65     1.57     1.51     1.46     1.39     1.30     1.28     1.28     1.36     1.44     
 1.52     1.63     1.72     1.83     1.96     2.09     2.23     2.37     2.52     2.68     
 2.84     3.01     3.18     3.37     3.55     3.73     3.92     4.11     4.30     4.50     
 4.68     4.86     5.04     5.23     5.41     5.59     5.77     5.97     6.17     6.38     
 6.60     6.83     7.09     7.37     7.69     8.03     8.42     8.87     9.36     9.90     
 10.52    11.25    12.08    13.06    14.18    15.47    17.00    18.74    20.78    23.13    
 25.74    28.65    31.87    35.45    39.30    43.04    47.46    52.16    57.07    62.24    
 67.58    73.17    78.80    84.60    90.21    95.82    101.31   106.65   111.79   116.78   
 121.72   126.89   132.56   138.88   146.13   155.31   165.34   176.94   189.79   204.33   
 226.26   
566729.31 562949.46 555708.34 545138.95 529159.09 504686.63 467370.63 415187.92 349979.53 288531.20 
 227082.83 165894.68 128378.53 101182.45 81349.72 67220.59 56436.72 48018.94 41278.95 35833.19 
 31105.65 27211.02 23316.39 19427.96 16098.53 13454.34 11438.14 9992.04  9009.48  8377.14  
 7949.75  7559.26  7106.59  6698.27  6407.36  6166.74  5931.30  5695.64  5475.48  5284.88  
 5134.11  5015.68  4914.88  4812.01  4703.29  4606.33  4527.40  4456.01  4381.55  4283.01  
 4169.66  4051.59  3937.41  3815.43  3677.57  3541.79  3413.60  3285.92  3169.12  3061.94  
 2959.54  2856.66  2747.24  2624.17  2500.94  2361.25  2212.20  2046.51  1898.81  1751.47  
 1601.49  1457.47  1316.55  1176.93  1044.85  902.81   783.24   660.40   549.85   451.37   
 356.87   284.47   212.07   140.03   98.06    67.92    44.97    27.69    11.43    1.92     
 1.23     1.19     1.15     1.15     1.14     1.14     1.14     1.15     1.19     1.25     
 1.33     1.43     1.51     1.62     1.74     1.85     1.98     2.11     2.25     2.41     
 2.56     2.72     2.89     3.06     3.24     3.42     3.60     3.78     3.95     4.13     
 4.31     4.49     4.66     4.83     5.00     5.18     5.37     5.55     5.74     5.94     
 6.16     6.39     6.64     6.91     7.22     7.54     7.90     8.33     8.78     9.31     
 9.88     10.54    11.29    12.16    13.18    14.42    15.81    17.45    19.37    21.61    
 24.22    27.09    30.37    33.94    37.81    42.03    46.45    51.14    56.15    61.42    
 66.96    72.61    78.18    84.25    90.33    96.47    102.50   108.44   114.08   119.54   
 124.71   129.82   135.00   140.54   146.82   154.44   163.64   174.44   187.01   200.94   
 226.26   
566729.31 562569.53 555007.50 544366.64 529222.30 506611.57 470555.48 417553.36 350143.55 277375.57 
 209627.70 157131.70 119343.70 96211.26 73196.86 58572.67 47643.69 39573.16 33424.22 28396.78 
 24127.23 20505.40 17245.42 14289.33 11937.53 10647.98 9366.82  8752.15  8297.43  7951.25  
 7646.60  7272.56  6843.75  6504.70  6295.23  6122.16  5934.94  5717.49  5488.38  5260.17  
 5058.41  4894.18  4757.17  4632.04  4525.46  4431.48  4343.23  4248.60  4160.34  4066.91  
 3963.69  3867.72  3761.81  3654.59  3542.56  3430.48  3324.82  3225.23  3103.22  2958.14  
 2809.67  2679.20  2552.12  2429.48  2294.85  2168.13  2044.70  1921.69  1799.89  1676.49  
 1551.08  1412.40  1272.39  1130.80  989.20   847.60   729.37   609.98   501.67   407.20   
 322.05   245.96   180.14   130.28   97.99    65.89    43.91    26.04    9.28     1.89     
 1.19     1.13     1.12     1.12     1.13     1.15     1.17     1.22     1.26     1.33     
 1.41     1.49     1.58     1.68     1.79     1.92     2.04     2.17     2.31     2.46     
 2.61     2.77     2.93     3.11     3.27     3.44     3.61     3.79     3.96     4.14     
 4.32     4.49     4.66     4.83     5.01     5.19     5.36     5.54     5.73     5.93     
 6.14     6.36     6.61     6.87     7.17     7.50     7.86     8.27     8.73     9.25     
 9.82     10.49    11.27    12.17    13.23    14.41    15.79    17.45    19.38    21.69    
 24.35    27.37    30.73    34.52    38.54    42.75    47.32    52.13    57.18    62.58    
 68.17    74.10    80.20    86.45    92.67    98.92    105.14   111.36   117.29   122.97   
 128.20   133.50   138.77   144.18   150.30   157.99   167.71   179.44   192.26   206.41   
 226.26   
566729.31 563327.26 556639.93 546697.44 532680.53 512284.87 481578.84 433247.53 367940.01 300011.30 
 232082.55 164440.87 122915.83 93120.33 72033.98 56936.85 45746.26 37360.88 31326.13 27320.70 
 23315.27 19320.54 16327.00 13725.37 11678.03 10239.11 9331.78  8737.85  8293.00  7940.55  
 7635.30  7279.77  6843.69  6463.80  6229.34  6076.57  5943.26  5791.93  5609.80  5401.54  
 5187.16  4996.39  4831.08  4690.89  4572.50  4464.08  4349.07  4219.62  4090.66  3969.62  
 3839.78  3712.13  3599.07  3498.34  3401.63  3293.23  3180.07  3073.44  2974.97  2889.40  
 2809.02  2725.74  2602.55  2478.83  2314.39  2154.04  1998.01  1849.57  1711.50  1580.45  
 1451.83  1323.91  1193.41  1059.51  937.65   819.21   708.14   600.81   499.62   410.73   
 327.28   255.98   184.95   136.44   99.31    69.84    46.75    29.22    12.58    1.93     
 0.95     0.86     0.89     0.92     0.94     0.97     1.01     1.06     1.12     1.20     
 1.28     1.37     1.46     1.56     1.67     1.79     1.92     2.05     2.20     2.34     
 2.50     2.67     2.84     3.01     3.19     3.37     3.54     3.73     3.91     4.09     
 4.28     4.46     4.65     4.82     5.00     5.17     5.35     5.53     5.70     5.89     
 6.09     6.30     6.54     6.79     7.08     7.40     7.77     8.20     8.69     9.25     
 9.87     10.58    11.39    12.31    13.39    14.65    16.05    17.69    19.62    21.88    
 24.55    27.55    30.97    34.72    38.75    43.08    47.66    52.43    57.58    63.06    
 68.88    74.89    81.07    87.46    93.84    100.19   106.43   112.71   118.77   124.68   
 130.33   135.73   140.97   146.24   151.85   158.46   166.94   178.02   192.08   208.31   
 226.26   
566729.31 563309.42 556627.54 546811.06 533143.13 512683.51 480146.57 431298.74 367651.04 293556.96 
 222076.26 164557.82 123770.02 99162.31 74684.88 59458.71 48428.92 40149.81 33964.81 28944.96 
 24691.56 21041.82 17763.48 14782.85 12326.23 10937.26 9556.72  8896.04  8425.06  8069.55  
 7765.53  7413.21  6975.75  6604.49  6373.42  6198.81  6015.38  5793.92  5559.48  5323.09  
 5110.46  4931.92  4789.99  4665.73  4552.92  4451.51  4363.92  4262.31  4162.61  4066.96  
 3974.82  3875.61  3767.87  3651.98  3543.27  3437.05  3335.29  3240.03  3132.30  3001.47  
 2860.76  2723.58  2593.31  2461.89  2329.66  2191.38  2068.76  1945.08  1820.98  1696.07  
 1573.18  1441.01  1308.73  1166.22  1023.61  881.00   758.42   638.45   531.49   430.68   
 342.49   261.78   192.78   138.76   104.17   69.78    46.29    28.85    12.79    2.39     
 1.17     1.07     1.05     1.05     1.09     1.12     1.16     1.22     1.29     1.37     
 1.44     1.54     1.64     1.74     1.86     1.98     2.12     2.25     2.39     2.54     
 2.71     2.87     3.04     3.22     3.40     3.57     3.76     3.94     4.13     4.31     
 4.49     4.67     4.85     5.03     5.22     5.40     5.58     5.77     5.98     6.18     
 6.40     6.63     6.89     7.17     7.50     7.87     8.28     8.76     9.29     9.85     
 10.54    11.32    12.18    13.18    14.32    15.58    17.06    18.73    20.68    22.99    
 25.60    28.55    31.88    35.61    39.67    43.92    48.64    53.59    58.88    64.41    
 70.21    76.32    82.50    88.90    95.20    101.54   107.83   114.02   120.02   125.84   
 131.47   136.91   142.22   147.48   152.98   159.38   167.28   177.44   190.08   205.04   
 226.26   
566729.31 564239.35 558725.37 549860.61 536935.58 517150.39 486090.17 440653.77 381000.70 310960.36 
 246280.99 181821.01 137366.65 105703.15 84504.30 69448.95 58060.49 49094.00 42172.78 36732.24 
 32085.03 28168.21 24251.39 20341.18 17024.76 14200.87 11984.47 10344.54 9247.50  8553.55  
 8102.15  7737.74  7315.80  6875.44  6558.52  6313.52  6079.64  5830.13  5589.37  5372.53  
 5199.93  5054.19  4935.61  4827.20  4726.85  4625.04  4537.12  4464.56  4395.13  4318.14  
 4215.14  4093.56  3969.64  3850.40  3725.10  3591.37  3461.71  3335.69  3210.62  3097.69  
 2988.87  2886.87  2781.87  2661.88  2541.79  2411.09  2269.80  2117.39  1957.79  1807.44  
 1653.88  1503.92  1364.52  1233.55  1093.43  960.95   826.81   706.67   594.58   492.05   
 394.41   316.98   239.55   162.44   112.05   76.98    50.53    31.69    16.88    4.75     
 1.22     0.95     0.94     0.96     0.99     1.01     1.06     1.12     1.19     1.27     
 1.36     1.45     1.54     1.65     1.77     1.89     2.03     2.16     2.32     2.46     
 2.63     2.79     2.97     3.15     3.34     3.53     3.71     3.90     4.09     4.28     
 4.47     4.66     4.84     5.02     5.22     5.40     5.59     5.78     5.99     6.20     
 6.42     6.67     6.93     7.22     7.54     7.88     8.28     8.74     9.27     9.84     
 10.47    11.18    11.97    12.88    13.89    15.11    16.46    18.03    19.89    22.02    
 24.52    27.29    30.49    34.05    37.96    42.27    46.94    51.94    57.37    63.04    
 68.99    75.05    81.23    87.57    93.89    100.28   106.63   112.97   119.06   125.16   
 131.09   137.05   142.92   148.85   154.82   161.09   168.49   177.34   188.08   201.04   
 226.26   
566729.31 564507.32 559128.93 550524.42 537412.52 516038.44 480809.71 432783.69 373329.91 307416.56 
 239486.69 183813.43 140722.82 118419.57 96284.31 74149.05 63069.08 54765.83 48117.59 42546.93 
 37589.19 33192.13 29087.65 25181.45 21556.68 18425.92 15798.90 13649.54 11801.08 10502.46 
 9209.16  8282.59  7480.05  6862.85  6426.69  6121.30  5874.93  5683.34  5530.69  5375.49  
 5223.10  5085.70  4964.64  4851.83  4757.71  4674.69  4586.50  4488.54  4384.02  4290.80  
 4181.34  4062.15  3954.61  3838.68  3735.62  3646.85  3559.43  3452.56  3328.52  3187.32  
 3047.20  2908.28  2782.74  2650.05  2513.24  2378.42  2255.36  2133.22  2002.57  1857.27  
 1714.28  1568.47  1423.44  1289.35  1155.74  1022.13  888.52   761.75   638.71   526.73   
 428.24   336.10   255.49   185.41   127.50   90.21    53.12    31.09    17.56    6.32     
 1.50     1.21     1.18     1.18     1.18     1.18     1.21     1.28     1.36     1.44     
 1.53     1.64     1.74     1.86     1.98     2.12     2.26     2.41     2.56     2.71     
 2.89     3.06     3.25     3.43     3.62     3.81     4.00     4.20     4.40     4.60     
 4.79     4.99     5.18     5.38     5.58     5.77     5.97     6.18     6.39     6.61     
 6.84     7.09     7.35     7.62     7.94     8.29     8.67     9.09     9.55     10.07    
 10.64    11.29    12.05    12.94    13.97    15.16    16.48    18.08    19.96    22.12    
 24.61    27.35    30.48    34.00    37.90    42.12    46.87    51.97    57.41    63.20    
 69.24    75.49    81.82    88.17    94.36    100.46   106.39   112.19   117.80   123.42   
 129.59   136.01   142.25   148.19   153.83   160.07   167.81   176.98   187.39   199.56   
 226.26   
566729.31 565683.38 561443.78 553908.18 541145.52 518643.37 483172.19 435061.46 375206.93 309776.78 
 250600.74 191593.16 147964.27 115860.14 92726.73 76587.44 64371.51 54918.56 47315.04 41219.41 
 35949.37 31347.26 27552.12 23756.98 19970.16 16913.23 14361.36 12267.60 10597.60 9353.94  
 8449.35  7739.98  7183.12  6723.15  6384.31  6160.93  5982.26  5820.78  5675.68  5546.84  
 5425.38  5312.34  5201.91  5099.12  4990.33  4889.68  4792.14  4683.45  4555.25  4419.38  
 4284.81  4157.65  4041.49  3931.72  3824.92  3720.14  3615.77  3510.96  3403.68  3292.26  
 3173.89  3048.02  2904.90  2772.16  2639.42  2506.81  2386.62  2256.46  2123.44  1992.05  
 1843.07  1694.51  1548.66  1403.73  1263.18  1124.06  986.36   849.07   722.05   609.60   
 502.15   401.01   321.77   242.54   163.62   110.41   68.30    38.56    20.47    10.14    
 1.70     1.04     1.00     0.98     0.99     1.04     1.10     1.18     1.27     1.37     
 1.47     1.57     1.69     1.81     1.94     2.08     2.23     2.39     2.56     2.72     
 2.89     3.07     3.26     3.45     3.65     3.85     4.04     4.24     4.43     4.63     
 4.83     5.03     5.23     5.42     5.60     5.80     6.00     6.20     6.40     6.62     
 6.84     7.07     7.32     7.59     7.87     8.19     8.54     8.92     9.36     9.86     
 10.45    11.10    11.84    12.71    13.72    14.96    16.35    17.98    19.89    22.08    
 24.61    27.39    30.59    34.12    38.01    42.35    47.05    52.08    57.52    63.18    
 69.10    75.18    81.27    87.60    93.70    99.76    105.54   111.24   116.64   122.00   
 127.58   134.16   140.39   146.69   152.14   158.64   166.96   176.39   187.09   199.02   
 226.26   
566729.31 565872.72 561653.93 553596.82 539249.36 513124.68 472068.26 418329.84 354976.83 289731.80 
 228798.87 178127.07 138370.09 115919.54 93608.82 71298.11 58831.15 49271.63 41677.07 35530.22 
 30389.76 26027.30 22164.41 18702.45 15660.63 13183.43 11719.94 10264.22 8808.49  8104.44  
 7602.87  7227.76  6900.48  6616.25  6368.54  6164.61  6001.27  5873.61  5762.79  5651.38  
 5537.94  5436.66  5354.56  5271.83  5169.19  5049.73  4922.81  4796.24  4661.55  4518.66  
 4380.56  4248.61  4131.72  4023.51  3921.06  3815.82  3709.33  3606.49  3497.18  3374.81  
 3251.12  3131.81  3011.40  2893.41  2768.95  2642.40  2514.62  2387.23  2250.91  2108.42  
 1963.44  1822.10  1679.95  1529.30  1374.11  1223.33  1075.94  928.59   794.06   671.10   
 555.98   449.72   348.26   260.68   186.42   127.18   86.22    45.43    23.82    10.95    
 1.90     1.12     1.11     1.11     1.17     1.24     1.32     1.40     1.48     1.58     
 1.70     1.81     1.94     2.07     2.21     2.37     2.53     2.70     2.86     3.04     
 3.23     3.42     3.61     3.81     4.02     4.22     4.41     4.61     4.81     5.01     
 5.20     5.39     5.56     5.76     5.95     6.13     6.31     6.50     6.70     6.90     
 7.10     7.32     7.57     7.83     8.11     8.43     8.79     9.18     9.64     10.16    
 10.72    11.43    12.24    13.22    14.36    15.66    17.21    18.98    21.02    23.36    
 25.96    28.87    32.12    35.73    39.67    43.86    48.49    53.40    58.51    63.84    
 69.30    74.96    80.65    86.51    92.31    98.27    104.13   109.95   115.74   121.48   
 127.35   133.56   139.82   145.77   152.30   160.37   169.42   179.68   191.05   203.80   
 226.26   
566729.31 565988.84 561379.23 552744.39 536678.59 506880.94 462235.91 404046.75 339049.72 274628.50 
 217208.04 170612.34 134537.25 112547.25 90709.80 68872.36 56553.17 46692.56 38937.37 32793.91 
 27993.62 23950.38 20525.93 17541.05 14958.95 12759.91 11446.67 10142.67 8838.67  8179.65  
 7700.83  7307.84  6972.60  6691.27  6457.53  6255.65  6080.76  5931.22  5802.68  5683.00  
 5593.53  5527.13  5431.67  5320.98  5208.16  5100.80  4989.59  4859.53  4716.73  4569.09  
 4431.19  4300.44  4187.38  4086.27  3993.13  3904.78  3820.01  3729.02  3621.11  3495.78  
 3369.88  3238.84  3117.56  3001.87  2884.70  2766.72  2635.03  2498.88  2360.32  2215.09  
 2068.21  1918.97  1769.71  1610.67  1452.29  1304.08  1153.65  1014.35  875.17   742.74   
 618.43   503.15   391.94   296.59   216.39   150.01   102.22   54.66    28.10    11.22    
 3.59     3.05     3.15     3.36     3.58     3.81     4.06     4.31     4.58     4.85     
 5.13     5.40     5.69     5.99     6.29     6.60     6.90     7.21     7.53     7.85     
 8.18     8.51     8.86     9.21     9.55     9.91     10.28    10.64    11.03    11.40    
 11.78    12.16    12.56    12.94    13.32    13.70    14.09    14.49    14.89    15.30    
 15.74    16.22    16.74    17.36    18.09    18.95    19.95    21.17    22.65    24.37    
 26.44    28.87    31.77    35.39    39.74    44.95    51.10    58.27    66.69    76.99    
 88.89    102.10   116.59   132.08   148.38   165.76   184.90   204.12   222.89   241.36   
 259.82   276.55   291.19   304.13   315.61   324.51   331.02   335.52   337.51   337.07   
 334.28   329.48   322.73   314.41   304.84   294.15   282.44   269.79   256.03   241.55   
 226.26   
566729.31 566658.41 562847.03 554568.60 538956.44 509330.43 463575.44 404426.96 336993.43 281653.64 
 226313.83 171139.74 136122.88 108851.31 87489.75 71438.00 58929.49 49170.27 41333.49 35194.05 
 30243.98 26529.37 22814.76 19107.43 16266.50 13818.50 11800.50 10295.30 9210.36  8439.23  
 7865.72  7420.63  7075.10  6782.40  6525.59  6310.60  6139.78  6008.61  5899.94  5792.09  
 5686.68  5589.92  5507.86  5418.63  5321.31  5200.95  5063.14  4917.02  4768.54  4620.49  
 4476.55  4350.00  4227.42  4108.37  3995.28  3877.88  3764.86  3655.78  3547.03  3429.97  
 3310.10  3184.28  3056.55  2933.93  2810.04  2682.44  2554.84  2427.23  2298.23  2160.69  
 2011.74  1856.68  1701.82  1546.28  1385.27  1226.23  1078.05  939.82   810.68   686.82   
 568.49   455.17   356.43   281.94   207.46   133.24   86.04    52.23    29.47    15.45    
 4.07     3.03     2.92     3.05     3.26     3.48     3.72     3.98     4.25     4.52     
 4.79     5.07     5.36     5.65     5.96     6.26     6.57     6.88     7.20     7.53     
 7.85     8.18     8.53     8.88     9.23     9.59     9.95     10.30    10.66    11.03    
 11.41    11.79    12.18    12.56    12.94    13.32    13.70    14.10    14.51    14.95    
 15.44    15.95    16.52    17.17    17.90    18.75    19.80    21.00    22.36    24.02    
 26.01    28.33    31.10    34.39    38.37    43.26    49.04    56.05    64.29    74.01    
 85.33    98.11    113.23   128.37   145.26   163.14   182.04   200.69   220.40   239.42   
 257.24   274.02   289.01   302.53   313.91   323.26   330.18   335.01   337.35   337.29   
 335.04   330.74   324.68   316.78   307.55   297.21   285.59   273.06   259.12   244.40   
 226.26   
566729.31 566455.13 562194.49 553085.90 536111.11 504445.66 454768.26 390357.70 321398.34 257730.89 
 204937.29 163980.32 132684.02 112700.36 92839.09 72977.83 61354.65 52382.29 45219.43 39454.54 
 34607.01 30366.89 26484.79 23024.17 19892.12 17146.15 14786.89 12839.16 11539.76 10248.60 
 8957.44  8136.30  7443.36  6900.53  6495.85  6201.88  5974.41  5800.68  5652.45  5513.16  
 5378.33  5247.89  5134.50  5034.36  4933.59  4837.94  4744.73  4636.51  4511.11  4381.97  
 4255.90  4135.05  4021.78  3910.57  3795.04  3680.25  3572.98  3476.08  3377.31  3271.40  
 3149.98  3015.70  2876.98  2744.52  2617.28  2491.67  2358.19  2224.61  2089.05  1944.77  
 1793.66  1641.69  1494.87  1355.59  1218.39  1082.63  946.88   806.69   687.43   577.83   
 473.40   374.48   283.67   212.57   153.00   115.31   77.89    40.47    22.99    9.43     
 3.27     3.17     3.00     3.06     3.25     3.47     3.71     3.96     4.21     4.48     
 4.75     5.02     5.30     5.59     5.89     6.20     6.49     6.81     7.12     7.45     
 7.78     8.11     8.44     8.79     9.15     9.50     9.86     10.21    10.58    10.97    
 11.35    11.73    12.11    12.48    12.86    13.26    13.65    14.07    14.50    14.97    
 15.47    15.99    16.61    17.30    18.08    18.99    20.03    21.24    22.66    24.27    
 26.14    28.31    30.96    34.13    38.02    42.68    48.28    55.06    63.20    73.03    
 84.34    97.07    111.25   127.07   144.59   163.11   182.31   201.60   222.22   242.33   
 262.43   279.73   295.84   309.78   321.18   330.03   336.31   339.91   341.40   340.31   
 337.06   331.87   325.26   316.94   307.36   296.39   284.18   271.01   256.90   242.01   
 226.26   
566729.31 566816.03 563086.05 554567.13 538057.66 507418.72 457810.86 392711.28 322080.28 263123.72 
 204316.70 164275.05 133097.13 108921.16 90541.04 76665.42 65717.91 57135.41 50352.29 44931.17 
 40221.97 35892.33 31816.96 28068.11 24814.70 21565.97 18844.99 16536.00 14604.06 12894.64 
 11394.67 10018.26 8802.06  7731.95  6932.87  6378.27  5991.30  5732.03  5546.27  5387.36  
 5248.45  5119.07  4995.07  4890.33  4800.40  4718.01  4632.75  4537.42  4429.03  4329.82  
 4233.61  4117.52  4002.63  3889.32  3786.58  3697.75  3603.97  3488.90  3354.63  3210.38  
 3064.18  2922.44  2789.00  2650.17  2511.45  2388.29  2263.61  2136.79  1999.75  1860.91  
 1713.44  1554.58  1415.95  1282.69  1150.13  1013.99  884.24   762.10   635.91   528.66   
 429.52   340.63   265.75   191.05   133.80   89.01    59.46    37.75    20.59    6.36     
 3.17     3.33     2.92     2.89     2.95     3.14     3.35     3.58     3.82     4.08     
 4.33     4.60     4.87     5.16     5.45     5.72     6.01     6.32     6.64     6.96     
 7.26     7.58     7.92     8.26     8.60     8.94     9.29     9.64     9.99     10.35    
 10.73    11.11    11.51    11.89    12.27    12.67    13.08    13.50    13.93    14.43    
 14.93    15.46    16.04    16.69    17.41    18.24    19.23    20.35    21.58    23.06    
 24.81    26.80    29.20    32.06    35.56    39.90    45.13    51.66    59.49    69.07    
 80.29    93.21    107.40   124.69   141.98   160.89   180.79   200.95   222.06   242.95   
 263.14   282.41   299.70   315.50   328.50   338.57   345.46   349.33   350.00   347.91   
 343.87   337.67   329.69   319.99   309.04   296.74   283.32   268.99   253.77   238.35   
 226.26   
566729.31 566376.83 561884.36 552110.19 534284.28 502004.46 448662.87 378232.12 306648.72 242526.23 
 191277.63 152612.09 124400.19 105874.75 87453.84 74771.91 64727.99 56497.27 49907.53 44363.36 
 39432.97 34993.24 30775.43 26921.90 23453.98 20399.44 17821.55 15644.22 13798.80 12181.44 
 10860.58 9543.33  8363.72  7419.28  6788.08  6350.19  6018.49  5736.58  5499.32  5299.69  
 5137.17  5013.73  4898.74  4782.65  4685.67  4590.91  4512.52  4447.07  4377.37  4290.47  
 4185.32  4069.35  3962.01  3848.40  3717.18  3580.18  3453.87  3330.48  3220.68  3111.82  
 3003.77  2895.22  2782.80  2664.74  2535.07  2390.52  2230.25  2070.20  1910.95  1755.70  
 1605.27  1463.28  1326.53  1179.52  1045.58  911.81   791.89   673.34   562.74   462.45   
 370.00   289.10   211.85   149.24   111.43   73.94    50.30    31.15    14.18    4.27     
 3.29     3.60     3.15     3.13     3.13     3.28     3.48     3.71     3.94     4.18     
 4.42     4.69     4.96     5.23     5.50     5.79     6.09     6.38     6.68     6.99     
 7.31     7.63     7.95     8.28     8.63     8.96     9.30     9.64     9.99     10.36    
 10.71    11.07    11.45    11.82    12.20    12.57    12.97    13.37    13.76    14.17    
 14.60    15.06    15.56    16.10    16.75    17.51    18.39    19.42    20.58    21.95    
 23.55    25.46    27.74    30.50    33.86    37.95    43.13    49.63    57.70    67.55    
 79.34    92.85    108.02   124.95   143.60   163.13   183.26   203.83   225.42   246.69   
 267.95   287.16   304.74   320.14   333.10   343.16   350.32   354.26   354.91   352.68   
 347.55   339.72   330.79   319.39   306.86   293.16   278.71   263.66   248.30   232.93   
 226.26   
566729.31 566732.94 562455.49 553155.57 535653.46 504296.74 451668.94 380329.92 305003.15 245338.86 
 185850.85 148487.79 121267.32 100681.59 85295.63 73084.79 62886.55 54331.04 47204.87 41509.79 
 36461.06 31968.60 28196.89 24425.19 20660.63 17724.08 15264.62 13272.85 11644.43 10245.08 
 9074.18  8079.98  7293.66  6746.85  6429.21  6207.14  5992.62  5769.51  5527.95  5286.26  
 5073.52  4911.06  4769.95  4641.78  4526.63  4432.42  4345.43  4258.76  4162.46  4066.55  
 3969.51  3879.21  3782.05  3679.96  3576.82  3478.52  3383.06  3290.61  3175.08  3035.04  
 2890.73  2761.24  2631.21  2501.02  2356.28  2230.02  2102.67  1972.67  1847.26  1722.55  
 1593.56  1449.57  1304.54  1148.78  1009.20  872.96   754.28   640.24   531.86   434.96   
 346.84   269.77   192.92   140.85   102.98   73.24    50.09    31.53    14.21    4.02     
 3.01     3.41     2.93     2.79     2.86     3.03     3.22     3.42     3.63     3.87     
 4.10     4.35     4.61     4.88     5.16     5.44     5.71     6.00     6.31     6.61     
 6.92     7.24     7.56     7.89     8.22     8.56     8.91     9.28     9.61     9.97     
 10.34    10.73    11.12    11.50    11.88    12.26    12.66    13.06    13.45    13.82    
 14.21    14.60    15.00    15.44    15.96    16.52    17.19    17.99    18.94    20.08    
 21.50    23.21    25.27    27.76    30.91    34.85    39.79    46.13    54.04    63.90    
 75.90    89.87    105.26   124.02   142.78   162.70   183.78   204.70   226.39   247.51   
 268.11   287.78   305.58   321.72   335.20   346.04   353.99   359.02   361.04   360.01   
 356.02   349.29   339.87   329.00   315.74   300.93   285.76   270.21   254.53   239.14   
 226.26   
566729.31 565934.28 560812.86 550531.36 531234.59 496907.61 438521.05 363370.58 287421.94 224570.10 
 175734.10 140922.94 115501.18 98717.89 82027.82 70259.42 60372.22 52026.36 45103.47 39325.20 
 34264.83 29762.89 25623.58 21939.65 18601.32 15860.81 13617.92 11832.80 10476.09 9124.80  
 8193.96  7463.97  6864.29  6453.06  6201.30  6029.19  5892.86  5729.60  5521.24  5296.62  
 5088.63  4910.51  4761.23  4637.56  4527.83  4415.45  4296.22  4173.70  4053.15  3921.37  
 3793.45  3676.03  3580.40  3493.45  3400.99  3292.82  3186.07  3093.79  3011.30  2932.13  
 2852.60  2756.45  2639.83  2479.27  2312.94  2143.75  1984.15  1833.89  1693.77  1560.59  
 1430.29  1295.61  1163.77  1031.97  900.16   789.24   677.36   573.58   473.23   387.73   
 304.08   232.60   170.46   126.10   96.10    66.28    44.30    25.23    8.98     3.71     
 2.87     3.00     2.79     2.86     3.02     3.19     3.39     3.58     3.79     4.01     
 4.24     4.49     4.74     5.01     5.28     5.55     5.83     6.13     6.43     6.73     
 7.04     7.35     7.67     8.00     8.34     8.69     9.03     9.39     9.75     10.13    
 10.50    10.89    11.28    11.66    12.05    12.44    12.84    13.24    13.63    14.01    
 14.40    14.78    15.17    15.58    16.02    16.52    17.10    17.86    18.78    19.87    
 21.21    22.84    24.83    27.43    30.71    34.82    40.02    46.59    54.78    64.80    
 77.32    92.11    108.64   126.38   145.31   165.66   186.64   207.51   228.30   249.78   
 271.25   289.98   307.68   323.05   335.88   345.97   353.21   357.52   359.00   357.59   
 353.34   346.07   336.57   325.26   312.61   299.03   284.97   270.55   256.18   241.93   
 226.26   
