IESNA:LM-63-2002
[TEST] 1
[TESTLAB] AOK
[TESTDATE] 2022-06-09
[ISSUEDATE] 2022-06-09 19:17:38
[NEARFIELD] 
[LAMPPOSITION] 0,0
[OTHER] EVERFINE GO-2000A_V1 SYSTEM
[MANUFAC] AOK
[LUMCAT] A
[LUMINAIRE] AOK-400WiSF-NV-S35-00-5070-2030D-P
[LAMPCAT] B
[LAMP] 3535
[BALLAST] E
[BALLASTCAT] F
[OTHER] 
[OTHER] Gamma(deg)    Fz(lm)      Ft(lm)     %Lum    %Lamp
[OTHER]   0- 10     15832.47    15832.47    31.10    31.10
[OTHER]  10- 20     17552.63    33385.10    65.59    65.59
[OTHER]  20- 30      7219.41    40604.52    79.77    79.77
[OTHER]  30- 40      3731.09    44335.60    87.10    87.10
[OTHER]  40- 50      2327.88    46663.48    91.67    91.67
[OTHER]  50- 60      1755.65    48419.13    95.12    95.12
[OTHER]  60- 70      1183.59    49602.73    97.45    97.45
[OTHER]  70- 80       565.94    50168.66    98.56    98.56
[OTHER]  80- 90       232.76    50401.43    99.02    99.02
[OTHER]  90-100       124.34    50525.77    99.26    99.26
[OTHER] 100-110        90.30    50616.07    99.44    99.44
[OTHER] 110-120        73.46    50689.53    99.58    99.58
[OTHER] 120-130        55.91    50745.44    99.69    99.69
[OTHER] 130-140        41.08    50786.52    99.77    99.77
[OTHER] 140-150        34.56    50821.08    99.84    99.84
[OTHER] 150-160        37.44    50858.52    99.92    99.92
[OTHER] 160-170        31.18    50889.70    99.98    99.98
[OTHER] 170-180        11.50    50901.20   100.00   100.00
[OTHER] 
TILT=NONE
1 50901 1 181 25 1 2 0.150 0.200 0.000
1.000 1 391.968
0.0    1.0    2.0    3.0    4.0    5.0    6.0    7.0    8.0    9.0    
 10.0   11.0   12.0   13.0   14.0   15.0   16.0   17.0   18.0   19.0   
 20.0   21.0   22.0   23.0   24.0   25.0   26.0   27.0   28.0   29.0   
 30.0   31.0   32.0   33.0   34.0   35.0   36.0   37.0   38.0   39.0   
 40.0   41.0   42.0   43.0   44.0   45.0   46.0   47.0   48.0   49.0   
 50.0   51.0   52.0   53.0   54.0   55.0   56.0   57.0   58.0   59.0   
 60.0   61.0   62.0   63.0   64.0   65.0   66.0   67.0   68.0   69.0   
 70.0   71.0   72.0   73.0   74.0   75.0   76.0   77.0   78.0   79.0   
 80.0   81.0   82.0   83.0   84.0   85.0   86.0   87.0   88.0   89.0   
 90.0   91.0   92.0   93.0   94.0   95.0   96.0   97.0   98.0   99.0   
 100.0  101.0  102.0  103.0  104.0  105.0  106.0  107.0  108.0  109.0  
 110.0  111.0  112.0  113.0  114.0  115.0  116.0  117.0  118.0  119.0  
 120.0  121.0  122.0  123.0  124.0  125.0  126.0  127.0  128.0  129.0  
 130.0  131.0  132.0  133.0  134.0  135.0  136.0  137.0  138.0  139.0  
 140.0  141.0  142.0  143.0  144.0  145.0  146.0  147.0  148.0  149.0  
 150.0  151.0  152.0  153.0  154.0  155.0  156.0  157.0  158.0  159.0  
 160.0  161.0  162.0  163.0  164.0  165.0  166.0  167.0  168.0  169.0  
 170.0  171.0  172.0  173.0  174.0  175.0  176.0  177.0  178.0  179.0  
 180.0  
0.0    15.0   30.0   45.0   60.0   75.0   90.0   105.0  120.0  135.0  
 150.0  165.0  180.0  195.0  210.0  225.0  240.0  255.0  270.0  285.0  
 300.0  315.0  330.0  345.0  360.0  
212779.61 211878.12 209558.38 204668.01 194835.96 159122.38 129169.33 102945.31 73567.27 54213.13 
 34512.63 24645.25 14360.42 9598.97  4897.91  196.85   102.37   54.77    43.17    32.85    
 27.26    22.72    18.89    16.47    14.41    13.17    12.13    10.81    9.73     9.19     
 8.78     8.52     8.23     7.69     6.71     5.90     5.54     5.42     5.36     5.22     
 5.34     5.42     5.36     4.93     4.81     4.57     4.54     4.72     4.85     4.76     
 4.55     4.36     4.28     4.26     4.23     4.21     4.22     4.06     3.96     3.86     
 3.74     3.67     3.54     3.38     3.26     3.13     3.01     2.86     2.76     2.66     
 2.59     2.52     2.46     2.40     2.36     2.33     2.33     2.32     2.33     2.34     
 2.37     2.41     2.44     2.49     2.60     2.79     2.92     3.03     3.11     3.19     
 3.25     3.31     3.39     3.43     3.45     3.45     3.48     3.55     3.63     3.75     
 3.92     4.09     4.29     4.51     4.76     5.02     5.29     5.55     5.83     6.09     
 6.34     6.60     6.86     7.12     7.38     7.66     7.97     8.30     8.67     9.07     
 9.50     9.95     10.42    10.91    11.42    11.97    12.58    13.23    13.89    14.58    
 15.30    16.06    16.84    17.64    18.51    19.43    20.48    21.69    23.13    24.75    
 26.55    28.62    30.92    33.57    36.51    39.86    43.65    47.99    53.14    59.10    
 66.02    73.78    82.54    92.20    102.19   112.72   123.54   134.61   145.50   156.28   
 166.68   176.57   185.61   193.08   198.96   202.92   204.97   205.12   203.51   200.38   
 196.01   190.44   184.05   177.00   169.66   161.86   154.03   146.20   137.76   128.37   
 117.40   
212779.61 212757.02 211011.29 207437.51 201234.92 176636.78 141987.62 118238.49 92577.99 64974.99 
 51087.23 41036.65 30986.06 20935.48 10884.90 925.95   882.72   718.39   523.16   327.92   
 134.36   158.25   174.09   117.38   114.33   117.96   99.91    62.14    55.87    41.09    
 25.39    17.70    15.05    12.97    11.47    9.61     8.14     7.00     6.36     5.78     
 5.40     5.12     5.04     5.07     5.01     4.81     4.61     4.45     4.31     4.13     
 3.91     3.74     3.63     3.47     3.36     3.25     3.14     3.03     2.91     2.81     
 2.72     2.65     2.56     2.47     2.41     2.36     2.31     2.28     2.23     2.21     
 2.17     2.12     2.07     2.03     2.00     1.97     1.96     1.96     1.96     1.96     
 1.97     1.99     2.01     2.05     2.09     2.14     2.20     2.26     2.32     2.38     
 2.46     2.54     2.62     2.71     2.81     2.93     3.05     3.19     3.34     3.50     
 3.68     3.87     4.07     4.30     4.53     4.77     5.02     5.27     5.52     5.75     
 6.00     6.25     6.51     6.78     7.07     7.37     7.70     8.03     8.42     8.81     
 9.25     9.74     10.24    10.76    11.29    11.85    12.46    13.11    13.75    14.45    
 15.17    15.90    16.67    17.47    18.34    19.35    20.49    21.81    23.27    24.97    
 26.91    29.06    31.42    34.10    37.08    40.53    44.41    48.92    54.13    60.25    
 67.22    75.11    83.60    93.01    102.90   113.12   123.70   134.07   144.78   155.26   
 165.38   174.98   183.40   190.56   195.81   199.21   200.77   200.57   198.71   195.45   
 191.04   185.46   179.30   172.53   165.41   158.46   150.13   141.75   133.12   124.16   
 117.40   
212779.61 213101.49 211700.09 209300.33 205004.62 197127.91 166552.18 138258.46 114582.19 91295.83 
 65108.22 52303.60 34067.00 26248.75 15963.48 7488.85  4319.01  1202.95  1046.53  927.05   
 765.85   438.63   270.01   205.36   221.11   191.35   177.94   136.84   110.87   85.10    
 74.95    72.33    57.27    47.61    41.05    35.17    31.68    26.16    23.38    20.22    
 17.49    15.11    14.00    13.49    12.73    11.45    10.87    9.82     9.19     8.37     
 7.63     6.98     6.35     5.52     5.01     4.72     4.52     4.31     4.02     3.74     
 3.49     3.25     3.07     2.95     2.84     2.73     2.59     2.44     2.32     2.22     
 2.14     2.07     2.02     1.99     1.95     1.92     1.88     1.85     1.81     1.79     
 1.77     1.77     1.77     1.79     1.84     1.90     1.97     2.04     2.12     2.20     
 2.30     2.40     2.51     2.64     2.77     2.91     3.06     3.23     3.38     3.55     
 3.73     3.90     4.09     4.28     4.47     4.67     4.87     5.09     5.33     5.56     
 5.82     6.09     6.38     6.67     6.98     7.30     7.65     8.00     8.38     8.78     
 9.19     9.61     10.06    10.54    11.03    11.52    12.05    12.63    13.24    13.90    
 14.61    15.39    16.28    17.28    18.38    19.67    21.11    22.70    24.50    26.50    
 28.70    31.17    33.95    37.11    40.64    44.70    49.36    54.43    60.24    66.86    
 74.11    81.86    90.04    98.70    108.15   117.73   127.41   136.96   146.55   156.33   
 165.23   172.95   179.34   184.69   188.53   190.78   191.56   190.91   188.96   185.91   
 181.66   177.31   171.65   165.56   159.01   152.26   145.10   137.82   130.41   123.13   
 117.40   
212779.61 213877.36 213233.77 211886.61 209536.82 204413.40 196702.56 177004.94 147988.67 126647.39 
 105378.90 87766.88 64911.88 49935.48 41105.80 31392.44 21694.49 13673.09 10957.53 6219.78  
 1516.85  1339.90  937.85   645.52   444.16   354.98   265.80   177.05   134.05   108.81   
 91.91    79.68    70.43    62.84    56.61    50.59    45.27    40.66    36.22    32.60    
 29.29    26.55    24.11    21.60    19.10    16.13    14.22    12.80    11.78    10.88    
 10.08    9.38     8.73     8.15     7.52     7.04     6.60     6.23     5.88     5.56     
 5.28     5.01     4.73     4.47     4.24     4.05     3.87     3.70     3.52     3.34     
 3.14     2.94     2.75     2.58     2.43     2.30     2.16     2.03     1.93     1.83     
 1.73     1.64     1.64     1.65     1.70     1.75     1.82     1.89     1.97     2.07     
 2.17     2.27     2.38     2.49     2.62     2.75     2.89     3.04     3.19     3.35     
 3.50     3.66     3.84     4.03     4.24     4.45     4.65     4.88     5.11     5.35     
 5.59     5.85     6.13     6.41     6.70     7.00     7.31     7.62     7.95     8.29     
 8.66     9.06     9.48     9.92     10.41    10.92    11.49    12.13    12.82    13.59    
 14.46    15.46    16.54    17.72    19.04    20.53    22.18    24.00    26.00    28.27    
 30.89    33.77    37.00    40.61    44.70    49.28    54.27    59.78    65.73    72.28    
 79.30    86.72    94.40    102.73   111.20   119.78   128.35   136.51   144.53   151.88   
 158.57   164.40   169.29   173.24   176.04   177.80   178.48   178.15   177.12   174.58   
 171.28   167.62   163.60   159.05   154.17   148.95   143.36   137.63   132.04   126.46   
 117.40   
212779.61 213917.44 213871.07 212622.84 209884.03 204655.61 197084.55 189908.35 181499.51 169703.72 
 151519.48 126782.78 106192.07 92488.64 76641.67 63102.89 52697.95 38670.52 29250.79 23369.02 
 17666.09 11236.55 8928.87  6668.61  4754.35  3962.66  1545.71  1198.31  872.27   546.23   
 389.34   287.98   217.53   176.98   146.76   123.72   105.72   87.77    75.31    64.27    
 55.36    47.99    41.93    37.09    33.03    29.50    26.78    24.27    22.27    20.41    
 18.54    16.94    15.33    13.61    11.90    10.40    9.50     8.88     8.33     7.85     
 7.51     7.24     7.01     6.76     6.55     6.36     6.17     6.01     5.86     5.71     
 5.57     5.41     5.23     5.03     4.77     4.50     4.18     3.83     3.46     3.08     
 2.72     2.31     1.93     1.81     1.81     1.83     1.89     1.96     2.03     2.12     
 2.21     2.30     2.40     2.52     2.65     2.77     2.91     3.06     3.22     3.39     
 3.56     3.75     3.93     4.14     4.35     4.56     4.78     5.01     5.25     5.48     
 5.73     5.98     6.24     6.50     6.78     7.08     7.37     7.67     8.00     8.36     
 8.73     9.12     9.55     10.03    10.52    11.09    11.72    12.44    13.22    14.08    
 15.02    16.02    17.15    18.42    19.84    21.39    23.21    25.27    27.55    30.20    
 33.14    36.47    40.27    44.46    49.05    54.14    59.52    65.30    71.43    78.07    
 84.96    92.00    99.10    106.28   113.82   121.12   128.15   134.71   140.80   146.69   
 151.96   156.49   160.23   163.27   165.73   167.31   168.09   168.77   168.18   166.87   
 164.89   162.10   159.15   155.74   152.28   148.39   144.47   140.04   135.57   130.66   
 117.40   
212779.61 213837.92 214092.40 213323.50 210522.12 205275.52 198435.44 191854.18 183529.68 174780.92 
 165557.72 156000.49 143761.41 131072.87 117789.38 104209.31 90987.93 77417.66 65598.46 53348.49 
 43053.93 33189.47 27391.23 21615.78 18549.71 16122.15 13757.12 11245.21 9862.85  8508.85  
 7426.00  6119.52  4767.29  3832.89  3139.35  2607.36  2076.11  1629.51  1340.21  1129.89  
 943.14   759.26   620.50   500.67   395.63   314.56   265.22   215.87   166.63   128.46   
 102.29   82.47    67.53    56.64    48.11    41.39    36.51    32.26    28.87    26.13    
 23.81    22.03    20.67    19.45    18.29    17.29    16.18    15.18    14.08    13.23    
 12.90    12.65    12.50    12.35    12.19    12.02    11.82    11.64    11.40    10.93    
 9.92     8.34     6.28     4.03     1.57     1.48     1.53     1.58     1.64     1.69     
 1.76     1.84     1.91     2.01     2.11     2.21     2.33     2.46     2.60     2.74     
 2.89     3.05     3.22     3.41     3.59     3.79     4.00     4.21     4.44     4.67     
 4.91     5.16     5.43     5.68     5.96     6.24     6.54     6.84     7.15     7.49     
 7.86     8.26     8.71     9.19     9.69     10.24    10.86    11.53    12.27    13.08    
 13.97    14.97    16.06    17.29    18.64    20.24    22.05    24.20    26.51    29.26    
 32.44    35.93    39.83    44.10    48.79    53.88    59.26    64.93    70.81    77.01    
 83.26    89.71    96.00    102.49   108.86   115.09   121.28   127.10   132.93   138.29   
 143.37   148.01   152.26   156.19   159.53   162.37   165.00   166.56   167.37   167.54   
 167.00   165.80   163.87   161.36   158.39   155.15   151.72   147.82   143.53   138.71   
 117.40   
212779.61 213193.76 213076.25 212210.31 209485.91 204581.50 197986.97 191511.02 184009.35 175616.96 
 166962.06 158042.61 147956.39 137128.35 124295.04 109702.23 94221.68 80247.61 68064.48 58056.66 
 49082.77 41802.80 35935.35 31332.33 27617.70 24739.84 21868.22 19522.43 17627.80 15969.97 
 14455.39 12945.74 11489.01 10169.94 8954.15  7883.95  6905.05  6119.21  5503.57  4975.02  
 4554.87  4230.17  3942.03  3666.98  3443.73  3288.05  3125.82  2993.00  2847.70  2673.00  
 2498.02  2300.49  2108.35  1932.83  1773.78  1632.68  1494.41  1378.21  1263.79  1152.15  
 1053.95  962.21   877.60   799.74   725.30   659.10   594.14   535.23   480.23   430.27   
 383.30   338.94   301.69   268.25   234.81   201.44   175.28   152.26   132.44   115.72   
 99.92    86.48    74.96    64.41    54.50    25.01    17.27    13.12    6.53     2.35     
 1.47     1.23     0.89     0.88     0.87     0.87     0.88     0.88     0.88     0.89     
 0.90     0.90     0.91     0.91     0.92     0.93     0.95     0.98     1.00     1.03     
 1.06     1.10     1.13     1.17     1.21     1.24     1.28     1.33     1.38     1.43     
 1.49     1.55     1.62     1.70     1.79     1.89     1.99     2.11     2.24     2.39     
 2.55     2.74     2.95     3.19     3.46     3.77     4.13     4.55     5.02     5.58     
 6.17     6.84     7.58     8.39     9.27     10.24    11.29    12.36    13.52    14.70    
 15.91    17.16    18.50    19.88    21.28    22.73    24.30    25.96    27.75    29.60    
 31.52    33.60    35.72    38.03    40.50    43.22    46.13    49.94    53.51    57.74    
 62.36    67.46    73.14    79.28    85.67    92.26    98.99    105.85   112.33   118.88   
 117.40   
212779.61 213186.01 212870.13 211642.78 208935.79 204620.77 198259.64 191770.93 184850.92 177313.27 
 168375.10 158850.48 147574.34 135908.70 123063.09 110028.65 96447.13 83218.79 70933.83 59968.51 
 50752.70 43796.59 38267.67 34126.59 30535.53 27443.54 25137.56 23122.47 21159.76 19360.82 
 17718.82 16090.23 14473.72 12968.92 11697.79 10428.63 9159.47  8177.73  7383.25  6757.09  
 6233.93  5812.71  5453.43  5148.45  4893.26  4678.10  4471.77  4290.18  4122.14  3970.38  
 3830.45  3682.97  3530.16  3371.25  3202.17  3034.63  2862.65  2689.82  2532.36  2375.01  
 2233.04  2100.45  1980.09  1867.51  1758.23  1649.39  1546.62  1448.75  1351.32  1255.92  
 1172.45  1089.08  1005.70  928.01   853.33   786.42   724.89   662.92   605.74   552.21   
 503.24   457.84   415.55   378.18   344.75   312.87   286.05   263.24   244.16   227.89   
 212.83   197.74   184.55   172.74   162.20   151.78   142.64   134.68   127.42   120.16   
 112.89   106.40   101.38   96.55    91.93    88.19    84.62    80.69    77.82    75.21    
 72.40    69.92    67.48    64.56    61.94    59.43    56.53    54.19    51.95    49.56    
 47.20    44.65    42.35    39.93    37.16    34.32    31.10    27.74    23.82    19.40    
 14.62    10.33    7.68     5.85     4.49     3.28     2.97     3.12     3.50     3.93     
 4.44     5.00     5.59     6.29     7.07     7.92     8.81     9.74     10.73    11.77    
 12.83    13.89    14.99    16.12    17.26    18.42    19.67    20.94    22.24    23.64    
 25.13    26.70    28.38    30.19    32.11    34.24    36.61    39.38    42.64    47.07    
 51.18    56.82    62.80    69.37    76.51    84.25    92.27    100.35   108.24   116.17   
 117.40   
212779.61 213020.70 212233.71 210667.19 208212.00 204690.70 199859.08 193835.14 186544.93 177018.28 
 165822.61 152949.45 139076.64 125209.76 111868.99 99435.37 87286.48 75427.92 64944.35 56374.91 
 49169.82 43318.99 38665.46 35005.26 31841.90 29121.24 26621.00 24320.92 22024.14 19990.44 
 17959.52 16015.67 14114.37 12469.85 11023.46 9744.80  8685.27  7839.15  7163.49  6662.69  
 6269.13  5941.23  5666.33  5425.53  5213.93  5023.74  4841.42  4680.10  4526.93  4383.14  
 4250.62  4120.58  3995.65  3862.22  3725.49  3577.87  3427.34  3267.40  3094.18  2919.96  
 2762.79  2620.48  2478.23  2340.95  2216.86  2086.30  1957.82  1836.76  1717.50  1603.88  
 1488.47  1374.95  1267.59  1168.85  1078.12  988.68   900.32   817.33   739.74   667.59   
 602.74   543.32   490.52   443.87   401.83   365.81   337.13   312.66   292.47   275.46   
 260.35   244.53   228.74   216.52   206.19   196.73   187.70   179.43   171.71   164.37   
 158.17   152.30   146.97   141.97   137.78   133.33   129.56   126.09   122.89   119.98   
 117.26   114.94   112.51   109.85   107.59   105.33   103.34   101.22   99.30    97.31    
 95.32    93.65    92.05    90.10    88.16    86.31    84.19    82.16    80.27    78.30    
 76.61    74.39    72.59    70.68    68.75    66.71    64.24    61.67    59.01    56.11    
 52.81    49.24    46.23    43.26    39.52    35.82    33.05    15.98    11.33    9.72     
 10.10    11.16    12.43    13.73    15.06    16.42    17.81    19.21    20.65    22.11    
 23.59    25.06    26.59    28.23    29.95    31.79    33.81    36.04    38.53    41.53    
 45.28    49.94    55.79    61.72    69.58    77.89    86.82    96.07    105.52   114.89   
 117.40   
212779.61 212437.22 210800.54 208542.69 205653.21 201824.91 196312.83 187715.61 176015.55 161220.55 
 144769.03 127954.32 112647.02 99493.64 88463.79 78624.83 70400.57 62909.99 55957.09 50157.80 
 44959.55 40646.33 36558.94 32846.06 29187.87 25835.49 22509.34 19473.37 16736.08 14417.45 
 12633.50 11603.76 10580.95 9558.14  8953.59  8423.74  7949.96  7538.55  7136.36  6799.35  
 6469.01  6163.21  5883.35  5641.87  5410.79  5210.33  5024.61  4844.23  4665.50  4495.63  
 4312.25  4162.78  4034.11  3908.86  3784.04  3647.17  3511.40  3376.44  3238.28  3100.49  
 2957.07  2817.21  2682.21  2546.86  2415.92  2276.59  2143.61  2009.48  1879.76  1744.45  
 1609.50  1491.04  1377.84  1260.76  1156.07  1051.50  946.93   851.17   770.06   696.65   
 631.44   570.24   514.09   465.13   423.35   388.16   357.66   332.44   311.89   295.71   
 280.78   265.77   252.19   240.74   230.17   221.50   213.90   207.60   202.10   197.16   
 192.58   188.34   184.72   181.36   178.26   175.38   172.72   170.36   168.09   165.99   
 163.86   161.85   159.54   157.62   155.57   153.78   151.86   149.94   148.11   146.28   
 144.31   142.01   139.74   137.16   135.02   133.01   130.92   128.07   125.21   122.69   
 120.13   117.55   114.82   112.23   109.27   106.51   103.88   101.09   98.20    95.52    
 92.62    89.45    87.04    84.58    82.06    79.89    75.41    72.26    69.41    65.87    
 62.49    55.91    52.30    50.22    47.99    27.13    20.09    19.54    21.01    21.66    
 22.17    23.82    25.77    27.86    30.02    32.21    34.29    36.47    38.91    41.57    
 44.70    48.37    52.85    58.29    64.53    72.07    81.36    91.46    101.98   112.48   
 117.40   
212779.61 212060.77 209860.69 206801.08 203068.99 197483.19 188248.99 175273.82 158747.52 140706.34 
 122589.32 106620.98 93688.29 83330.33 74246.94 66577.86 60452.96 54895.75 50297.67 45832.76 
 41263.55 36568.31 31907.92 27905.69 23903.46 19920.29 17569.96 15951.77 14793.67 13846.29 
 13042.23 12294.79 11658.67 11065.55 10526.04 9950.41  9399.73  8896.87  8415.44  7987.71  
 7573.27  7198.45  6850.94  6532.37  6224.58  5915.68  5651.08  5413.41  5186.85  4954.05  
 4733.88  4533.49  4350.19  4190.53  4036.96  3894.38  3768.12  3635.11  3506.61  3387.46  
 3281.49  3140.52  2980.78  2822.18  2658.49  2494.82  2333.25  2181.44  2039.71  1886.39  
 1736.21  1593.32  1462.67  1341.29  1221.04  1115.57  1018.93  925.15   840.03   763.44   
 695.06   628.89   567.88   517.32   473.03   435.53   404.36   378.01   355.38   337.42   
 321.39   305.11   289.28   275.47   264.34   254.83   247.59   242.31   237.04   231.79   
 228.94   226.36   224.35   222.68   221.30   220.47   219.95   219.44   219.01   218.54   
 218.14   217.84   217.10   216.29   215.54   213.94   211.72   208.90   205.71   202.25   
 198.26   193.94   189.30   184.87   180.50   176.31   172.40   168.58   164.71   161.13   
 157.69   154.05   150.34   146.86   143.31   139.70   135.94   132.22   128.35   123.77   
 118.20   112.97   107.35   102.88   99.15    96.40    93.84    92.26    90.88    88.48    
 87.12    83.26    79.35    76.47    73.60    71.10    63.78    62.22    59.19    37.68    
 24.79    25.70    27.05    28.83    31.02    33.81    36.83    39.85    42.67    45.32    
 48.11    51.00    54.26    58.11    62.92    68.95    76.53    86.12    96.87    107.93   
 117.40   
212779.61 211238.96 208162.76 204134.80 198739.38 189622.32 175863.91 157714.85 138063.43 118790.28 
 102023.57 89248.21 79415.26 71045.32 64387.66 58960.69 54317.13 50058.32 46009.04 41189.94 
 35995.36 30718.22 26018.66 22425.55 20113.81 18672.66 17733.93 16908.35 16227.70 15595.97 
 15047.82 14532.13 14004.85 13433.90 12811.06 12144.20 11516.17 10888.45 10260.74 9664.22  
 9092.88  8569.94  8087.17  7616.42  7181.11  6764.58  6414.08  6066.95  5762.84  5472.34  
 5218.41  4987.72  4793.76  4638.68  4530.11  4475.77  4493.78  4526.87  4595.44  4453.72  
 4245.22  4025.56  3777.56  3552.54  3296.45  3041.27  2833.88  2583.94  2332.02  2089.74  
 1913.03  1755.73  1602.21  1471.16  1349.16  1239.69  1135.54  1031.43  944.50   863.82   
 786.57   716.26   652.16   596.21   547.22   507.32   471.91   441.08   416.26   395.90   
 376.53   356.56   337.06   319.99   305.63   293.13   283.21   275.69   269.48   265.02   
 261.69   259.24   257.80   257.01   256.65   256.61   256.95   257.04   256.44   255.40   
 254.44   253.95   253.65   253.43   253.08   252.08   250.56   248.56   245.61   241.86   
 237.60   232.67   227.14   221.34   215.37   209.44   203.21   197.23   191.58   186.29   
 181.45   176.61   171.81   167.15   162.65   158.25   153.97   142.69   137.11   133.43   
 129.78   126.02   122.25   118.13   114.20   110.50   106.66   103.04   99.41    95.79    
 92.95    90.00    88.73    85.97    81.71    80.99    80.07    77.65    71.79    68.05    
 63.39    32.71    30.09    32.82    35.72    38.96    42.70    46.53    50.14    53.47    
 56.34    59.07    61.58    63.82    66.76    71.17    77.20    85.95    96.31    107.47   
 117.40   
212779.61 210958.11 207502.65 202883.75 196086.74 185231.27 169707.44 149742.68 128008.77 107798.63 
 92148.49 81510.65 73129.95 66447.11 60966.73 56576.35 52469.03 48569.08 44504.86 39629.79 
 34079.19 28793.26 25310.91 21848.54 20173.42 19203.99 18480.68 17838.40 17338.79 16912.53 
 16431.61 15956.24 15405.50 14746.61 14097.67 13370.19 12573.84 11817.73 11076.50 10406.52 
 9767.86  9135.82  8555.38  8047.85  7569.88  7155.55  6766.58  6388.43  6044.97  5755.44  
 5487.33  5268.36  5072.89  4900.02  4781.86  4949.97  5146.31  5212.39  5277.56  5157.73  
 4844.46  4598.47  4191.16  3946.51  3712.72  3384.13  3142.46  2852.47  2562.48  2273.55  
 2077.87  1887.78  1722.36  1582.06  1451.34  1328.50  1215.11  1107.77  1017.70  930.88   
 848.81   771.65   704.78   644.01   591.74   546.62   508.62   473.83   445.95   422.19   
 401.16   379.90   358.30   339.76   322.35   308.06   295.87   286.25   278.44   272.13   
 267.61   264.52   262.21   260.60   259.65   258.86   258.25   257.85   256.58   254.96   
 252.61   250.30   248.43   246.81   245.15   243.67   241.86   238.46   235.06   231.70   
 227.25   222.66   217.68   212.39   207.08   201.55   196.09   190.76   185.72   180.88   
 176.19   171.55   166.94   162.36   157.84   153.49   149.20   144.63   132.76   127.69   
 124.44   121.37   118.11   114.79   111.48   108.32   105.21   102.33   99.58    97.04    
 94.34    92.76    91.51    90.42    89.61    88.87    87.94    86.91    83.57    73.59    
 70.73    64.62    35.12    38.14    41.32    45.24    49.45    53.89    58.02    61.86    
 65.02    67.85    70.17    72.00    73.86    76.53    80.42    86.54    95.06    105.65   
 117.40   
212779.61 210335.10 206392.00 201350.85 194199.78 182879.70 166632.53 146997.45 126348.68 107337.62 
 91917.32 81028.22 72598.57 66083.38 60701.35 56402.56 52519.13 48663.74 44741.34 40517.51 
 35328.88 30198.75 25588.05 22182.21 20189.23 18992.51 18230.17 17627.42 17115.17 16734.38 
 16315.29 15848.31 15242.33 14583.61 13845.21 13137.84 12414.88 11688.42 10961.94 10235.45 
 9599.54  8974.14  8407.42  7880.97  7423.94  6992.01  6620.94  6248.76  5922.79  5627.72  
 5349.33  5120.43  4925.70  4751.37  4612.14  4554.72  4656.22  4669.93  4649.55  4512.36  
 4302.31  4061.82  3838.90  3578.85  3383.44  3204.69  2930.55  2663.19  2411.16  2194.60  
 2026.55  1874.56  1702.66  1552.59  1421.99  1302.02  1186.15  1089.80  993.62   909.37   
 829.84   758.36   692.08   631.68   579.41   535.59   498.30   464.39   436.90   414.01   
 393.67   373.10   353.64   334.97   318.99   304.85   292.66   283.18   274.66   268.02   
 262.39   257.88   254.26   251.07   248.02   244.79   242.09   238.96   235.43   231.60   
 227.80   224.10   220.82   217.59   214.41   211.40   208.26   204.74   200.91   196.64   
 192.67   188.70   184.69   180.64   176.75   172.83   168.95   165.11   161.54   158.06   
 154.70   151.04   147.63   144.32   141.01   137.69   134.51   127.45   120.37   118.10   
 115.81   112.96   110.33   107.61   104.66   102.57   100.13   97.87    95.28    92.81    
 91.23    89.83    88.68    85.36    84.47    84.67    84.91    83.79    79.23    77.05    
 73.84    40.80    41.78    44.97    49.19    53.89    58.68    63.24    67.40    70.96    
 73.97    76.49    78.41    79.96    81.50    83.50    86.52    91.36    97.81    105.89   
 117.40   
212779.61 210319.89 206637.83 201977.94 195722.63 186539.65 174443.63 159053.58 141618.77 123514.15 
 106147.90 91960.17 81292.23 72651.72 65569.38 59935.18 55414.96 51050.56 47205.06 43393.12 
 39542.86 35275.31 30644.19 26945.62 23247.06 19566.99 17472.01 16088.07 15185.06 14488.06 
 13895.77 13379.94 12889.08 12419.67 11976.30 11437.12 10852.44 10263.13 9720.68  9197.54  
 8658.85  8181.96  7742.96  7311.69  6931.04  6547.14  6194.80  5881.64  5579.12  5300.02  
 5046.67  4814.37  4609.06  4429.04  4259.42  4101.92  3957.97  3813.31  3676.52  3564.65  
 3437.02  3290.65  3142.88  2979.25  2820.36  2655.55  2490.83  2335.02  2169.99  2017.79  
 1872.44  1732.56  1595.30  1464.77  1334.29  1215.34  1109.76  1011.44  921.57   838.03   
 764.59   695.66   631.27   572.83   524.35   479.72   441.87   410.75   384.30   364.92   
 347.22   330.89   313.36   297.03   282.98   270.19   258.80   249.40   241.64   233.89   
 226.16   220.59   215.38   210.38   205.66   201.33   197.02   192.81   188.60   184.65   
 180.79   177.26   173.86   170.55   167.39   164.46   161.36   158.42   155.52   152.48   
 149.18   145.98   142.87   140.15   137.21   134.61   132.18   130.15   127.47   125.15   
 122.84   120.79   118.20   115.98   113.82   111.63   109.75   107.66   105.60   103.83   
 101.05   97.43    93.77    89.61    86.27    84.17    83.05    82.80    81.96    83.20    
 81.92    78.32    76.54    75.57    74.08    73.50    71.01    70.19    64.81    39.17    
 40.09    42.89    46.52    51.06    55.96    60.79    65.34    69.69    73.46    76.80    
 79.66    81.91    83.65    85.58    87.72    90.11    93.53    97.84    102.94   108.83   
 117.40   
212779.61 210166.92 206634.46 202521.07 197605.46 191231.13 183103.67 172107.87 158797.70 142970.61 
 126645.91 111863.69 98732.21 87393.62 78273.41 70463.36 63582.00 57441.47 52280.77 47243.23 
 42956.15 39040.92 35450.83 31879.24 28492.37 25142.36 21973.39 19092.69 16339.60 14117.13 
 12511.69 11619.86 10734.56 9849.27  9304.10  8843.03  8414.48  8013.68  7672.98  7356.84  
 7053.26  6742.65  6470.94  6208.75  5952.21  5704.87  5482.69  5279.83  5089.08  4883.67  
 4684.68  4499.90  4329.57  4180.45  4034.32  3884.63  3748.05  3610.77  3462.75  3316.62  
 3165.34  3016.41  2877.03  2729.40  2586.46  2445.15  2309.03  2176.94  2039.70  1908.40  
 1772.36  1635.49  1512.50  1393.25  1275.23  1170.25  1065.39  960.54   861.48   780.00   
 707.92   644.24   585.48   531.44   481.66   439.36   402.79   371.97   346.08   326.41   
 310.22   293.92   278.10   262.59   248.57   236.45   226.23   216.80   208.50   200.88   
 193.41   186.92   180.69   174.68   169.36   164.22   159.82   155.45   151.47   147.79   
 144.68   141.27   137.90   135.00   132.40   130.02   127.59   125.17   122.74   120.50   
 118.43   116.06   113.77   111.83   110.08   107.99   106.10   104.49   102.93   101.40   
 99.71    97.74    95.75    94.01    92.42    90.26    88.26    86.34    84.55    82.23    
 79.46    77.18    74.24    71.61    69.72    66.52    64.34    63.04    60.36    57.78    
 56.22    51.71    50.27    50.00    31.75    28.62    30.70    34.35    37.30    40.92    
 45.05    49.30    53.53    57.69    61.69    65.49    69.06    72.35    75.36    78.06    
 80.59    83.11    85.76    88.56    91.72    95.54    99.90    104.63   109.59   114.98   
 117.40   
212779.61 210648.33 207845.54 204578.01 200873.12 196733.57 192059.61 186037.74 178650.79 168583.57 
 156606.18 143575.90 130514.97 118201.52 106854.29 95861.47 85198.83 74803.96 65290.54 56860.61 
 49816.53 43613.89 38800.27 34818.25 31666.90 28923.68 26441.30 24277.15 22114.36 20061.57 
 17968.71 16109.73 14247.78 12518.44 11063.37 9758.18  8711.49  7822.72  7167.35  6684.78  
 6294.22  5973.30  5706.11  5480.23  5272.87  5097.52  4921.89  4757.20  4616.25  4478.94  
 4349.90  4218.66  4100.91  3989.65  3866.49  3729.84  3589.69  3453.76  3306.30  3152.48  
 2995.42  2831.49  2687.14  2542.78  2398.56  2268.24  2140.32  2013.68  1883.93  1760.60  
 1641.32  1526.98  1413.92  1310.98  1208.84  1112.69  1017.06  926.80   844.93   768.03   
 693.79   626.24   563.06   509.99   464.10   424.37   388.83   358.90   332.72   311.91   
 295.67   280.92   265.57   250.71   237.15   223.63   212.58   202.58   192.90   183.91   
 175.38   167.02   159.98   153.72   147.72   142.05   136.33   131.40   127.09   123.14   
 119.57   116.00   112.47   109.24   106.40   103.74   101.34   98.85    96.31    93.64    
 91.29    89.45    86.90    84.64    82.69    80.27    77.90    75.87    73.68    71.49    
 69.18    66.88    64.79    62.84    60.81    58.53    56.80    54.62    52.62    49.86    
 46.71    43.42    40.16    36.97    33.31    18.06    12.96    11.95    13.01    15.03    
 17.28    19.73    22.43    25.36    28.49    31.78    35.25    38.80    42.46    46.09    
 49.68    53.14    56.49    59.77    62.88    65.90    68.82    71.65    74.41    77.20    
 79.98    83.01    86.41    90.25    94.51    99.13    104.11   109.27   114.61   119.89   
 117.40   
212779.61 211137.55 209100.82 206694.35 203953.46 200766.13 197130.97 192490.93 186342.12 179891.06 
 171863.44 163015.21 153435.07 142648.02 131246.80 119669.18 107841.59 95886.59 83502.13 70151.81 
 58385.32 48916.28 41517.22 35928.80 31642.01 28387.40 25842.97 23598.75 21611.36 19848.39 
 18149.87 16514.25 15073.98 13565.32 12176.87 10968.38 9761.37  8554.36  7663.90  6954.07  
 6375.84  5920.45  5530.97  5210.80  4957.60  4740.93  4535.64  4383.80  4241.09  4096.07  
 3954.20  3815.11  3676.05  3542.52  3418.12  3266.16  3107.64  2942.34  2773.03  2613.18  
 2453.40  2302.34  2165.14  2040.31  1916.39  1796.81  1682.81  1573.59  1466.79  1367.51  
 1270.67  1178.60  1092.74  1006.93  926.61   852.47   783.95   717.87   657.67   600.04   
 547.70   498.64   452.25   410.42   372.97   340.41   309.59   282.27   259.71   241.06   
 224.99   213.03   201.23   189.44   177.98   168.00   159.62   151.04   142.55   134.40   
 127.31   120.46   113.62   105.57   100.21   96.09    91.67    86.69    82.76    78.45    
 74.79    71.47    67.79    64.42    61.45    57.97    54.27    50.62    46.76    43.54    
 40.09    36.69    33.32    29.97    26.63    23.10    19.25    15.77    13.43    11.22    
 9.38     4.88     3.35     3.54     3.89     4.27     4.72     5.23     5.78     6.47     
 7.25     8.13     9.13     10.24    11.48    12.90    14.43    16.11    17.96    19.96    
 22.11    24.38    26.80    29.40    32.12    34.90    37.87    40.92    43.96    47.08    
 50.18    53.26    56.30    59.35    62.35    65.38    68.47    71.63    74.82    78.15    
 81.68    85.52    89.75    94.30    99.16    104.55   110.19   116.08   122.00   127.84   
 117.40   
212779.61 211944.04 210688.31 209112.30 207305.04 205077.62 200474.58 195490.41 189675.78 182797.28 
 173722.21 165017.04 156140.61 146630.89 135739.45 123378.18 109978.59 95483.21 82079.13 70588.31 
 59691.50 50230.83 42408.28 36218.09 31308.59 27312.14 23924.95 21207.16 19027.22 17129.33 
 15334.65 13864.49 12418.18 11119.58 9822.67  8622.62  7595.41  6754.43  5996.08  5416.01  
 4948.22  4536.02  4194.48  3901.54  3598.23  3369.71  3187.39  3016.92  2863.59  2705.58  
 2530.97  2361.78  2169.61  1988.48  1806.27  1654.41  1517.07  1384.75  1254.51  1142.13  
 1029.95  931.16   833.93   745.03   666.08   589.52   517.04   450.40   391.07   337.18   
 289.54   246.29   207.47   174.51   146.10   125.35   104.68   84.02    69.62    59.47    
 51.47    44.24    36.73    32.81    30.55    29.32    16.69    3.87     2.08     2.07     
 2.08     1.99     1.95     1.95     1.99     1.99     2.04     2.11     2.18     2.25     
 2.35     2.44     2.55     2.65     2.77     2.90     3.04     3.19     3.33     3.48     
 3.65     3.82     3.99     4.17     4.37     4.57     4.78     5.01     5.25     5.51     
 5.77     6.05     6.37     6.71     7.08     7.49     7.95     8.45     9.04     9.68     
 10.41    11.20    12.10    13.11    14.25    15.58    17.08    18.74    20.69    22.92    
 25.60    28.63    32.06    35.94    40.14    44.77    49.67    55.02    60.87    66.96    
 73.26    79.59    86.03    92.54    98.96    105.17   111.15   117.01   122.54   127.81   
 132.65   137.15   141.24   144.88   148.06   150.68   152.88   154.57   155.72   156.34   
 156.33   155.68   154.46   152.75   150.58   147.87   144.58   140.67   136.19   131.07   
 117.40   
212779.61 211850.06 210364.61 208684.40 207056.96 205091.18 201057.39 196105.76 189764.19 183138.71 
 172491.56 162379.46 152298.60 138828.03 122079.41 105158.73 87767.84 74175.05 63681.86 54137.16 
 44966.92 34462.58 29315.48 24168.37 19039.70 16028.79 12502.10 10012.77 8437.31  7286.26  
 6346.20  5211.62  4004.99  3257.70  2746.27  2234.51  1685.29  1415.50  1161.90  897.28   
 684.44   539.03   444.78   365.10   304.98   244.85   184.95   151.70   127.37   104.95   
 89.68    78.60    68.25    57.65    50.93    45.19    40.32    36.52    33.04    30.04    
 27.49    25.67    24.05    22.54    21.07    19.43    17.52    15.02    14.82    14.82    
 14.82    14.76    14.82    14.92    14.97    14.93    14.81    14.69    14.41    13.90    
 13.20    12.01    10.20    7.68     5.05     1.88     1.55     1.59     1.65     1.70     
 1.76     1.83     1.90     1.99     2.08     2.18     2.29     2.40     2.53     2.66     
 2.79     2.93     3.09     3.25     3.43     3.60     3.78     3.98     4.18     4.40     
 4.62     4.85     5.09     5.33     5.59     5.85     6.12     6.40     6.70     7.01     
 7.34     7.70     8.09     8.50     8.97     9.47     10.00    10.60    11.26    11.98    
 12.79    13.67    14.71    15.80    17.02    18.37    20.00    21.81    23.81    26.13    
 28.89    31.92    35.36    39.26    43.54    48.38    53.47    59.02    64.81    70.96    
 77.23    83.62    89.94    96.43    102.75   108.90   114.92   120.54   126.07   131.16   
 135.93   140.32   144.29   147.92   151.18   153.94   156.23   158.10   159.45   160.25   
 160.37   159.77   158.62   156.73   154.25   151.12   147.20   142.48   136.85   130.57   
 117.40   
212779.61 211551.17 209839.74 207785.84 205339.37 202495.60 198642.09 189938.92 169938.24 146495.31 
 127722.67 111031.30 93129.55 79685.16 65865.00 51242.50 42717.11 36405.04 26020.53 19776.81 
 15978.12 12483.48 8992.06  5500.64  1791.76  1173.89  937.01   703.77   505.94   362.26   
 266.69   214.82   181.90   158.29   138.42   122.35   106.31   90.28    80.02    70.73    
 62.44    55.13    48.42    42.69    38.36    34.55    31.75    28.79    26.51    24.36    
 21.55    18.46    14.24    11.79    10.90    10.37    9.81     9.30     8.78     8.31     
 7.98     7.61     7.26     7.02     6.74     6.53     6.34     6.14     5.97     5.83     
 5.69     5.58     5.42     5.22     5.05     4.86     4.59     4.19     3.78     3.44     
 3.05     2.68     2.26     1.97     1.89     1.88     1.90     1.97     2.04     2.10     
 2.19     2.28     2.37     2.48     2.60     2.73     2.88     3.02     3.18     3.34     
 3.50     3.67     3.85     4.05     4.25     4.45     4.66     4.88     5.11     5.35     
 5.58     5.83     6.09     6.35     6.62     6.91     7.19     7.49     7.81     8.15     
 8.50     8.89     9.29     9.73     10.21    10.70    11.27    11.92    12.65    13.44    
 14.31    15.25    16.28    17.47    18.80    20.27    21.89    23.76    25.88    28.24    
 30.97    34.01    37.55    41.53    45.89    50.71    55.99    61.78    67.97    74.45    
 81.25    88.21    95.34    102.54   109.79   116.86   123.62   130.17   136.41   142.15   
 147.38   152.05   156.16   159.65   162.65   165.13   167.11   168.63   169.50   169.71   
 169.35   168.34   166.52   164.05   161.00   157.04   152.30   146.64   140.21   132.55   
 117.40   
212779.61 211507.72 209677.87 206593.02 202311.51 196576.20 174988.14 146052.36 129270.19 107916.32 
 88738.64 66470.84 54223.65 43059.07 30184.97 22871.95 15583.79 10915.22 6246.65  1611.06  
 1405.70  987.10   646.23   474.16   422.92   348.61   274.30   200.24   152.22   114.18   
 95.42    81.69    71.68    63.69    57.22    51.84    47.60    43.12    38.93    35.41    
 31.86    28.21    24.86    20.37    16.87    15.25    14.27    13.41    12.46    11.70    
 10.85    10.11    9.37     8.56     7.77     7.10     6.58     6.16     5.83     5.51     
 5.16     4.85     4.60     4.37     4.16     3.96     3.76     3.51     3.37     3.24     
 3.14     3.02     2.89     2.75     2.62     2.49     2.39     2.28     2.18     2.10     
 2.01     1.95     1.95     1.96     2.00     2.05     2.10     2.16     2.23     2.30     
 2.37     2.45     2.53     2.62     2.72     2.84     2.96     3.08     3.22     3.37     
 3.52     3.68     3.84     4.02     4.21     4.40     4.61     4.81     5.03     5.26     
 5.50     5.74     6.01     6.27     6.55     6.84     7.14     7.44     7.74     8.07     
 8.42     8.81     9.19     9.61     10.06    10.57    11.10    11.69    12.35    13.09    
 13.91    14.87    15.92    17.08    18.36    19.80    21.44    23.24    25.19    27.42    
 29.97    32.78    35.96    39.55    43.60    48.16    53.16    58.71    64.73    71.33    
 78.37    85.91    93.56    101.74   110.09   118.42   126.79   134.65   142.48   149.75   
 156.38   162.23   167.33   171.69   175.10   177.79   179.58   180.32   180.30   179.51   
 177.98   175.83   172.81   169.18   164.99   160.03   154.24   147.74   140.38   132.09   
 117.40   
212779.61 211343.23 209038.55 204589.05 197988.70 173100.97 140243.04 119375.86 97334.51 71799.81 
 56701.27 40048.65 29251.50 18310.82 12744.06 7015.29  1284.24  1047.51  880.74   619.90   
 444.18   273.01   280.93   191.78   206.78   191.48   148.40   140.06   121.60   103.02   
 89.11    75.64    59.78    48.94    45.63    40.98    35.37    34.15    24.05    21.31    
 18.47    18.25    17.18    15.46    14.20    13.45    11.79    10.83    9.79     9.32     
 8.31     7.62     7.09     6.24     5.30     4.76     4.54     4.43     4.28     4.07     
 3.82     3.60     3.44     3.23     3.05     2.88     2.75     2.62     2.51     2.40     
 2.30     2.22     2.15     2.09     2.05     1.99     1.95     1.91     1.88     1.85     
 1.84     1.84     1.84     1.86     1.91     1.96     2.03     2.09     2.16     2.25     
 2.34     2.43     2.52     2.62     2.73     2.85     2.97     3.11     3.26     3.41     
 3.58     3.76     3.95     4.15     4.36     4.57     4.79     5.02     5.26     5.50     
 5.76     6.04     6.32     6.61     6.91     7.23     7.55     7.88     8.23     8.59     
 8.96     9.34     9.75     10.18    10.64    11.11    11.59    12.11    12.68    13.30    
 13.97    14.75    15.62    16.62    17.73    19.06    20.52    22.14    23.96    26.01    
 28.27    30.88    33.76    37.05    40.68    44.83    49.59    54.84    60.67    67.34    
 74.62    82.37    90.48    98.90    107.59   116.82   126.22   135.58   145.17   154.35   
 162.72   170.35   177.08   182.86   187.28   190.28   192.06   192.57   191.95   190.23   
 187.50   183.70   179.23   173.89   168.04   161.55   154.37   146.73   138.40   129.01   
 117.40   
212779.61 211718.69 209452.32 204771.27 196483.38 162287.26 131086.36 105861.16 79216.52 56215.40 
 39966.02 28175.14 16417.59 8584.70  820.77   725.88   676.45   432.78   352.56   439.30   
 330.55   221.80   113.54   65.09    50.83    37.31    28.15    24.15    20.42    17.90    
 16.63    15.52    14.44    13.42    12.53    10.18    8.13     7.19     6.80     6.60     
 6.32     6.07     5.78     5.55     5.37     5.17     4.90     4.65     4.51     4.28     
 4.11     3.99     3.78     3.60     3.49     3.31     3.15     3.05     2.94     2.81     
 2.70     2.61     2.54     2.48     2.42     2.38     2.35     2.33     2.31     2.27     
 2.23     2.20     2.17     2.14     2.10     2.06     2.04     2.03     2.02     2.02     
 2.02     2.04     2.07     2.10     2.13     2.17     2.21     2.27     2.31     2.37     
 2.44     2.53     2.59     2.66     2.74     2.83     2.94     3.07     3.22     3.38     
 3.55     3.74     3.94     4.16     4.41     4.66     4.91     5.17     5.43     5.68     
 5.94     6.20     6.47     6.74     7.01     7.31     7.61     7.94     8.29     8.67     
 9.06     9.48     9.94     10.43    10.93    11.44    11.97    12.54    13.13    13.75    
 14.41    15.11    15.86    16.68    17.57    18.61    19.78    21.13    22.64    24.38    
 26.40    28.66    31.11    33.93    37.06    40.68    44.76    49.42    54.74    60.97    
 67.89    75.76    84.14    93.33    102.92   112.96   123.25   133.55   144.19   154.52   
 164.57   174.17   182.56   189.80   195.37   199.67   202.20   202.93   202.13   199.91   
 196.48   191.41   185.86   179.43   172.16   164.30   155.87   147.10   137.88   128.51   
 117.40   
212779.61 211878.12 209558.38 204668.01 194835.96 159122.38 129169.33 102945.31 73567.27 54213.13 
 34512.63 24645.25 14360.42 9598.97  4897.91  196.85   102.37   54.77    43.17    32.85    
 27.26    22.72    18.89    16.47    14.41    13.17    12.13    10.81    9.73     9.19     
 8.78     8.52     8.23     7.69     6.71     5.90     5.54     5.42     5.36     5.22     
 5.34     5.42     5.36     4.93     4.81     4.57     4.54     4.72     4.85     4.76     
 4.55     4.36     4.28     4.26     4.23     4.21     4.22     4.06     3.96     3.86     
 3.74     3.67     3.54     3.38     3.26     3.13     3.01     2.86     2.76     2.66     
 2.59     2.52     2.46     2.40     2.36     2.33     2.33     2.32     2.33     2.34     
 2.37     2.41     2.44     2.49     2.60     2.79     2.92     3.03     3.11     3.19     
 3.25     3.31     3.39     3.43     3.45     3.45     3.48     3.55     3.63     3.75     
 3.92     4.09     4.29     4.51     4.76     5.02     5.29     5.55     5.83     6.09     
 6.34     6.60     6.86     7.12     7.38     7.66     7.97     8.30     8.67     9.07     
 9.50     9.95     10.42    10.91    11.42    11.97    12.58    13.23    13.89    14.58    
 15.30    16.06    16.84    17.64    18.51    19.43    20.48    21.69    23.13    24.75    
 26.55    28.62    30.92    33.57    36.51    39.86    43.65    47.99    53.14    59.10    
 66.02    73.78    82.54    92.20    102.19   112.72   123.54   134.61   145.50   156.28   
 166.68   176.57   185.61   193.08   198.96   202.92   204.97   205.12   203.51   200.38   
 196.01   190.44   184.05   177.00   169.66   161.86   154.03   146.20   137.76   128.37   
 117.40   
