IESNA:LM-63-2002
[TEST] 1
[TESTLAB] AOK
[TESTDATE] 2022-05-31
[ISSUEDATE] 2022-05-31 18:55:53
[NEARFIELD] 
[LAMPPOSITION] 0,0
[OTHER] EVERFINE GO-2000A_V1 SYSTEM
[MANUFAC] AOK
[LUMCAT] A
[LUMINAIRE] AOK-1200WiSF-HV-S5-00-5070-3585D-P
[LAMPCAT] B
[LAMP] 5050
[BALLAST] E
[BALLASTCAT] F
[OTHER] 
[OTHER] Gamma(deg)    Fz(lm)      Ft(lm)     %Lum    %Lamp
[OTHER]   0- 10     12543.87    12543.87     7.55     7.55
[OTHER]  10- 20     28239.46    40783.33    24.53    24.53
[OTHER]  20- 30     32624.45    73407.78    44.16    44.16
[OTHER]  30- 40     31282.78   104690.56    62.98    62.98
[OTHER]  40- 50     25589.70   130280.26    78.37    78.37
[OTHER]  50- 60     18253.42   148533.69    89.36    89.36
[OTHER]  60- 70     10301.37   158835.06    95.55    95.55
[OTHER]  70- 80      4463.58   163298.64    98.24    98.24
[OTHER]  80- 90      1492.25   164790.88    99.14    99.14
[OTHER]  90-100       553.49   165344.37    99.47    99.47
[OTHER] 100-110       265.45   165609.83    99.63    99.63
[OTHER] 110-120       182.80   165792.62    99.74    99.74
[OTHER] 120-130       135.39   165928.01    99.82    99.82
[OTHER] 130-140       102.27   166030.28    99.88    99.88
[OTHER] 140-150        77.44   166107.72    99.93    99.93
[OTHER] 150-160        59.20   166166.91    99.96    99.96
[OTHER] 160-170        43.92   166210.84    99.99    99.99
[OTHER] 170-180        16.14   166226.98   100.00   100.00
[OTHER] 
TILT=NONE
1 1.6623e+005 1 181 25 1 2 0.150 0.200 0.000
1.000 1 1203.93
0.0    1.0    2.0    3.0    4.0    5.0    6.0    7.0    8.0    9.0    
 10.0   11.0   12.0   13.0   14.0   15.0   16.0   17.0   18.0   19.0   
 20.0   21.0   22.0   23.0   24.0   25.0   26.0   27.0   28.0   29.0   
 30.0   31.0   32.0   33.0   34.0   35.0   36.0   37.0   38.0   39.0   
 40.0   41.0   42.0   43.0   44.0   45.0   46.0   47.0   48.0   49.0   
 50.0   51.0   52.0   53.0   54.0   55.0   56.0   57.0   58.0   59.0   
 60.0   61.0   62.0   63.0   64.0   65.0   66.0   67.0   68.0   69.0   
 70.0   71.0   72.0   73.0   74.0   75.0   76.0   77.0   78.0   79.0   
 80.0   81.0   82.0   83.0   84.0   85.0   86.0   87.0   88.0   89.0   
 90.0   91.0   92.0   93.0   94.0   95.0   96.0   97.0   98.0   99.0   
 100.0  101.0  102.0  103.0  104.0  105.0  106.0  107.0  108.0  109.0  
 110.0  111.0  112.0  113.0  114.0  115.0  116.0  117.0  118.0  119.0  
 120.0  121.0  122.0  123.0  124.0  125.0  126.0  127.0  128.0  129.0  
 130.0  131.0  132.0  133.0  134.0  135.0  136.0  137.0  138.0  139.0  
 140.0  141.0  142.0  143.0  144.0  145.0  146.0  147.0  148.0  149.0  
 150.0  151.0  152.0  153.0  154.0  155.0  156.0  157.0  158.0  159.0  
 160.0  161.0  162.0  163.0  164.0  165.0  166.0  167.0  168.0  169.0  
 170.0  171.0  172.0  173.0  174.0  175.0  176.0  177.0  178.0  179.0  
 180.0  
0.0    15.0   30.0   45.0   60.0   75.0   90.0   105.0  120.0  135.0  
 150.0  165.0  180.0  195.0  210.0  225.0  240.0  255.0  270.0  285.0  
 300.0  315.0  330.0  345.0  360.0  
135415.72 130567.10 127859.56 125669.98 115269.57 105641.93 95376.62 80859.22 70605.21 59221.64 
 47958.43 37428.55 33185.80 30702.99 28361.34 26108.11 24039.61 19245.64 16025.10 12342.46 
 9264.29  6193.43  3859.48  1816.33  1357.87  916.78   475.69   34.61    23.06    19.87    
 17.55    15.69    14.73    13.55    12.47    11.67    10.83    10.17    9.68     9.26     
 8.86     8.72     8.51     8.28     8.16     8.01     7.65     7.40     7.10     6.88     
 6.99     7.22     7.38     7.51     7.56     7.54     7.37     7.09     6.86     6.56     
 6.25     5.99     5.81     5.66     5.50     5.38     5.32     5.27     5.23     5.18     
 5.15     5.14     5.13     5.12     5.13     5.13     5.16     5.22     5.30     5.39     
 5.51     5.68     5.89     6.11     6.35     6.62     6.93     7.28     7.65     8.06     
 8.49     8.95     9.46     10.00    10.59    11.24    11.96    12.74    13.60    14.52    
 15.54    16.65    17.82    19.06    20.42    21.85    23.33    24.87    26.47    28.11    
 29.93    31.82    33.75    35.65    37.62    39.72    41.93    44.20    46.53    48.96    
 51.63    54.36    57.17    60.09    63.21    66.35    69.70    73.16    76.77    80.47    
 84.22    88.03    91.96    95.98    99.97    104.04   108.15   112.33   116.62   120.99   
 125.57   130.34   135.38   140.63   145.95   151.44   157.14   163.17   169.51   175.84   
 182.49   189.22   195.80   202.25   208.65   214.84   220.73   226.21   231.14   235.50   
 239.48   243.46   245.83   247.71   248.77   248.82   247.79   245.62   242.49   237.75   
 231.82   225.67   219.72   213.89   207.31   200.19   193.98   184.55   176.28   167.51   
 156.90   
135415.72 130790.36 127521.89 125467.31 121326.25 110251.83 99877.24 89500.15 77704.53 65259.75 
 55087.22 46496.41 36072.18 32373.23 29879.96 27467.74 24514.63 21561.51 18608.55 15668.85 
 12331.58 9098.79  6233.81  4469.30  2625.06  795.25   581.78   368.32   156.42   106.77   
 92.20    69.44    62.75    56.93    39.66    30.36    24.46    20.83    18.93    17.55    
 16.54    15.69    14.71    13.68    12.87    12.30    11.75    11.30    10.85    10.36    
 9.85     9.31     8.60     8.12     7.69     7.40     7.19     7.01     6.89     6.76     
 6.65     6.60     6.47     6.35     6.20     6.07     5.94     5.75     5.59     5.51     
 5.54     5.57     5.65     5.73     5.84     5.84     5.88     5.93     5.95     6.00     
 6.08     6.14     6.23     6.38     6.59     6.83     7.09     7.39     7.73     8.10     
 8.54     9.03     9.52     10.07    10.71    11.41    12.15    12.97    13.91    14.91    
 15.94    17.05    18.23    19.51    20.84    22.23    23.70    25.25    26.89    28.59    
 30.29    32.12    34.07    36.07    38.09    40.23    42.46    44.77    47.15    49.66    
 52.27    55.05    57.99    60.94    63.90    67.03    70.26    73.64    77.05    80.51    
 83.96    87.50    91.11    94.67    98.26    101.95   105.77   109.74   113.75   117.98   
 122.92   127.85   132.68   137.75   143.05   148.69   154.47   160.54   166.74   173.03   
 179.41   185.82   191.98   198.23   204.32   210.00   215.34   219.99   224.34   228.25   
 231.35   234.10   236.64   238.52   238.94   238.55   237.08   234.82   231.21   227.72   
 223.88   219.44   215.05   210.99   205.34   199.40   193.02   186.14   178.51   171.00   
 156.90   
135415.72 131419.85 128324.61 126479.05 124455.53 116537.49 107374.72 97157.69 87293.71 77095.39 
 65884.17 56761.21 47268.63 38516.17 33089.95 30277.03 27805.88 25591.94 23455.18 21424.45 
 17155.97 14391.37 11578.50 9147.66  6721.12  4807.27  3120.32  1286.85  835.88   402.62   
 298.28   217.57   169.62   133.19   114.20   95.40    77.62    65.77    57.50    48.95    
 43.16    38.99    34.93    31.99    29.55    27.61    25.51    23.45    21.84    20.39    
 19.26    18.03    16.50    14.62    13.11    12.33    11.92    11.60    11.17    10.68    
 10.14    9.63     9.16     8.81     8.52     8.27     8.04     7.80     7.59     7.36     
 7.11     6.88     6.67     6.48     6.30     6.14     6.02     5.92     5.87     5.84     
 5.84     5.89     6.06     6.31     6.60     6.95     7.34     7.78     8.24     8.73     
 9.32     9.96     10.67    11.46    12.37    13.32    14.32    15.44    16.64    17.87    
 19.19    20.58    22.01    23.51    25.08    26.73    28.42    30.21    32.07    33.99    
 35.93    38.01    40.18    42.41    44.69    47.08    49.50    51.99    54.60    57.25    
 59.95    62.66    65.50    68.37    71.26    74.11    77.14    80.26    83.40    86.65    
 89.93    93.28    96.75    100.36   104.16   108.11   112.26   116.51   120.89   125.39   
 130.12   135.08   140.20   145.42   150.74   156.17   161.72   167.41   173.00   178.51   
 184.03   189.42   194.60   199.66   204.58   209.14   213.23   216.98   220.56   222.82   
 225.16   227.10   228.58   229.43   229.68   229.23   228.01   226.30   224.35   222.62   
 219.64   217.13   214.11   210.28   205.87   201.00   196.00   189.90   183.67   177.71   
 156.90   
135415.72 132304.39 129479.12 127347.40 125391.44 123077.95 117068.61 108521.07 101667.62 93026.07 
 84583.13 75199.04 67728.50 58434.65 51413.96 44270.00 36847.49 32031.86 29240.65 26939.32 
 24926.24 22913.16 20900.59 18944.41 16207.83 13579.79 10798.29 8602.94  6904.98  5129.96  
 4078.51  2753.51  1434.29  852.06   582.14   419.07   320.60   262.80   205.25   174.82   
 152.01   132.60   115.65   100.29   88.60    77.36    68.14    60.41    53.83    48.68    
 44.23    40.22    36.00    31.09    26.65    23.79    22.78    22.25    21.10    19.27    
 17.15    15.38    14.31    13.57    12.96    12.31    11.75    11.26    10.78    10.31    
 9.88     9.45     9.05     8.68     8.31     7.95     7.59     7.30     7.09     6.94     
 6.91     6.93     7.06     7.35     7.79     8.28     8.82     9.41     10.04    10.74    
 11.50    12.34    13.21    14.18    15.21    16.29    17.43    18.66    19.98    21.35    
 22.76    24.24    25.83    27.51    29.28    31.04    32.88    34.82    36.85    38.92    
 41.02    43.19    45.47    47.81    50.25    52.77    55.38    57.97    60.66    63.47    
 66.41    69.48    72.64    75.76    78.99    82.33    85.83    89.43    93.08    96.85    
 100.72   104.68   108.75   112.90   117.09   121.39   125.79   130.26   134.64   139.14   
 143.87   148.50   153.07   157.69   162.33   166.97   171.51   175.97   180.29   184.45   
 188.57   192.56   196.30   200.02   203.60   206.91   209.96   212.56   214.90   216.89   
 218.53   219.83   220.78   221.32   221.38   221.18   220.88   220.43   219.38   217.89   
 216.12   214.07   211.78   209.27   206.92   204.93   200.50   195.28   189.71   185.16   
 156.90   
135415.72 133502.11 131687.13 129375.89 126935.00 125084.80 123216.18 120905.15 117424.89 110644.06 
 104060.80 98866.18 92712.77 87305.82 80380.38 72789.74 68604.54 62298.84 55341.36 50187.51 
 44578.61 40170.90 34702.12 30284.85 27642.71 25342.36 23313.57 21312.47 19426.37 17658.07 
 15980.44 14381.49 12376.03 10445.65 8516.19  6979.83  5512.77  4588.40  3615.26  2877.07  
 2161.17  1576.43  1125.06  845.22   567.41   440.01   352.55   281.45   227.87   185.93   
 156.95   133.82   115.73   97.70    83.33    72.30    62.51    54.81    50.04    44.55    
 39.90    36.70    33.04    29.67    26.53    24.19    21.24    17.60    15.77    14.82    
 14.11    13.48    13.00    12.34    11.81    11.31    10.77    10.15    9.59     9.10     
 8.76     8.57     8.56     8.91     9.40     10.00    10.66    11.39    12.17    13.00    
 13.90    14.87    15.90    17.04    18.26    19.56    20.94    22.38    23.91    25.55    
 27.28    29.11    31.00    32.96    35.07    37.25    39.47    41.81    44.22    46.69    
 49.23    51.94    54.72    57.57    60.51    63.57    66.68    69.87    73.18    76.60    
 80.07    83.63    87.30    91.06    94.83    98.58    102.51   106.58   110.64   114.65   
 118.71   122.74   126.84   130.95   135.00   139.03   143.15   147.32   151.45   155.57   
 159.57   163.51   167.50   171.49   175.44   179.21   182.92   186.45   189.73   192.63   
 195.46   198.08   200.44   202.56   204.62   206.45   208.11   209.62   211.04   212.20   
 213.21   214.21   215.07   215.74   216.40   217.02   218.04   217.85   217.07   215.96   
 214.94   213.87   213.06   212.92   211.42   208.96   206.28   202.92   199.11   195.25   
 156.90   
135415.72 134796.62 134217.78 132904.89 130794.33 128981.12 126982.11 125049.34 123136.48 121114.06 
 119188.92 117263.84 115342.05 112893.75 110702.46 108550.64 105199.99 101192.44 96347.11 92767.32 
 89434.14 85532.05 81522.74 77247.12 73214.85 69437.43 64603.50 60253.48 56131.78 52329.42 
 49005.18 45065.34 41209.46 37641.00 34496.40 31345.71 28393.02 25850.43 23307.83 20768.73 
 18596.78 16816.57 15195.77 13698.07 12301.76 10910.95 9613.55  8452.29  7356.44  6261.16  
 5227.56  4220.62  3364.78  2699.94  2037.14  1638.24  1338.56  1096.60  879.90   703.87   
 550.35   427.02   332.03   277.13   222.23   167.49   132.94   106.81   86.33    70.27    
 56.66    47.66    41.20    35.61    29.42    24.39    19.90    18.06    16.78    15.19    
 13.40    11.29    9.27     8.18     8.46     8.98     9.54     10.15    10.84    11.58    
 12.41    13.31    14.27    15.33    16.48    17.67    18.93    20.31    21.76    23.28    
 24.86    26.49    28.24    30.13    32.13    34.21    36.38    38.66    41.11    43.65    
 46.28    48.98    51.86    54.78    57.78    60.94    64.13    67.28    70.59    74.00    
 77.59    81.32    85.19    88.89    92.82    96.94    101.04   105.32   109.58   113.80   
 118.15   122.50   126.91   131.06   135.34   139.40   143.59   147.57   151.35   155.16   
 158.02   160.74   164.30   167.73   171.22   174.69   178.00   181.16   184.13   187.02   
 189.83   192.43   194.92   197.34   199.58   201.72   203.76   205.63   207.48   209.14   
 210.72   212.23   213.64   214.99   216.26   217.17   217.94   218.80   220.00   221.98   
 221.99   220.49   218.68   217.85   218.15   217.68   216.03   214.45   211.42   208.50   
 156.90   
135415.72 136066.52 136868.96 136988.33 136297.57 135817.17 134953.57 134011.17 132822.92 131411.13 
 130290.70 128821.61 127556.58 126356.22 124884.91 123414.32 121673.55 119990.64 118475.95 117035.81 
 115105.91 112890.56 110842.26 109110.99 106846.23 104293.60 101662.28 99114.12 96520.72 93492.35 
 90386.04 87396.94 84210.74 80876.63 77874.40 74596.37 71253.22 67794.05 64299.78 61202.94 
 58676.18 55889.94 53072.85 50319.72 47579.56 44932.31 42391.12 39713.38 37290.34 34839.95 
 32435.39 30196.10 28116.88 26102.89 24088.90 22078.22 20374.99 18713.02 17055.58 15477.41 
 14045.61 12794.63 11570.91 10398.09 9355.87  8379.51  7473.52  6607.36  5834.14  5130.98  
 4511.29  3912.88  3372.32  2940.16  2507.99  2076.60  1721.97  1400.28  1126.65  892.51   
 695.54   518.74   378.38   266.61   155.19   71.35    17.97    12.74    10.41    9.16     
 8.73     8.89     8.70     8.22     4.70     4.57     4.83     5.22     5.28     5.12     
 5.36     5.64     6.06     6.64     6.50     6.84     7.41     7.72     7.93     8.55     
 9.18     9.29     9.90     10.61    11.61    12.59    13.21    13.86    14.56    15.32    
 16.13    17.00    17.89    18.86    19.89    20.96    22.07    23.24    24.42    25.67    
 26.96    28.28    29.69    31.10    32.51    33.98    35.60    37.28    38.98    40.74    
 42.59    44.50    46.45    48.52    50.69    53.03    55.41    57.92    60.51    63.16    
 65.83    68.62    71.58    74.67    77.82    81.13    84.84    88.88    93.23    97.69    
 102.21   106.86   111.83   117.16   122.32   127.24   132.07   139.78   143.98   151.11   
 156.00   160.55   162.93   167.22   171.27   174.99   179.24   181.90   184.62   186.81   
 156.90   
135415.72 137486.53 139581.59 141055.89 141864.26 142777.34 143557.78 144440.90 145169.01 145515.63 
 145794.75 146177.38 146500.83 146595.53 146756.48 146966.04 146795.74 146430.26 145934.96 145142.45 
 143767.13 142406.49 140809.86 139091.13 136978.95 134687.32 131749.31 128534.61 125341.09 122003.89 
 118653.30 115442.58 111925.09 107844.53 103783.10 99974.14 96163.23 92492.52 88808.87 85334.94 
 82270.90 79154.86 75862.31 72660.13 69750.92 66612.10 63563.41 60671.66 57741.11 54930.44 
 52168.29 49414.97 46853.67 44446.19 41968.12 39593.44 37267.72 35234.65 33260.11 31145.82 
 29150.62 27305.64 25568.67 23884.73 22205.30 20653.92 19119.71 17713.72 16336.87 14980.27 
 13768.03 12600.99 11533.13 10466.01 9398.88  8518.85  7743.18  6989.15  6286.42  5648.26  
 5092.64  4594.53  4141.15  3716.07  3339.07  2974.72  2655.48  2373.98  2132.97  1924.79  
 1725.00  1527.31  1349.94  1190.60  1057.48  924.56   813.88   715.85   623.54   547.73   
 479.98   422.92   374.60   333.57   297.09   264.02   234.33   208.35   185.27   164.94   
 146.72   132.28   119.84   107.42   94.87    81.44    69.08    58.77    51.18    34.26    
 15.97    11.91    11.76    12.26    13.01    13.89    14.83    15.83    16.83    17.99    
 19.43    20.71    21.90    23.13    24.73    26.37    27.61    28.18    28.91    29.98    
 31.15    32.59    34.27    35.83    37.33    38.68    39.90    41.09    41.97    45.10    
 47.72    49.72    50.24    51.37    53.73    56.17    58.94    61.88    65.06    68.61    
 72.43    76.50    81.00    85.81    90.92    96.40    102.03   108.56   116.38   121.83   
 127.38   133.28   137.51   143.05   148.49   154.17   160.09   164.82   169.48   173.79   
 156.90   
135415.72 138627.92 141960.65 145325.91 148392.25 150893.60 153326.12 156004.53 158522.92 160519.51 
 161783.78 162386.57 162568.61 162000.02 159880.30 157920.79 155634.92 152825.25 149068.80 145076.07 
 141548.11 137897.75 134415.59 130931.24 127608.27 124393.59 121199.23 118362.42 115319.64 112437.18 
 109268.94 106249.26 103308.04 100210.41 97094.69 93794.43 90466.38 87501.87 84480.03 81350.68 
 78260.47 75106.05 72269.26 69581.94 67006.75 64428.45 61933.78 59750.19 57461.48 55084.64 
 52701.49 50456.28 48366.93 46270.23 44072.40 41948.86 40025.33 38077.60 36114.00 34162.72 
 32241.45 30485.13 28803.35 27009.74 25538.75 24067.76 22597.79 21222.74 19775.06 18402.24 
 16975.36 15610.94 14312.88 13034.77 11796.42 10559.81 9325.66  8223.37  7297.33  6518.49  
 5723.49  5008.70  4456.65  3975.90  3556.00  3203.59  2930.52  2657.45  2385.27  2196.75  
 2007.82  1810.53  1627.84  1463.99  1317.21  1186.64  1072.08  967.24   885.31   812.00   
 747.68   694.12   648.21   607.05   571.91   540.14   512.56   487.98   466.69   449.13   
 433.80   415.29   397.01   380.27   364.34   350.16   336.85   322.97   308.86   293.76   
 279.48   264.75   248.73   232.72   216.70   200.78   185.64   171.14   156.15   139.92   
 120.79   92.38    72.39    52.25    40.35    39.31    33.75    21.73    15.64    16.22    
 17.18    18.19    19.28    20.47    21.67    22.97    24.29    25.72    27.65    29.81    
 31.77    33.58    35.45    42.30    45.78    38.82    40.81    42.99    45.42    48.17    
 51.26    54.62    58.27    62.38    66.87    71.78    76.99    82.58    88.33    94.70    
 101.96   108.33   114.14   120.76   127.80   135.88   142.28   148.56   155.09   161.48   
 156.90   
135415.72 139709.51 144325.33 149344.26 153861.50 158314.65 161983.96 164785.84 166983.51 167775.44 
 166349.74 164520.24 161682.53 157546.99 153453.02 149459.63 145649.74 142038.67 138677.47 135462.64 
 131973.14 128405.08 124660.25 120761.77 116797.94 112709.41 108900.34 105367.53 102030.99 99128.21 
 96657.52 94558.91 92723.76 91255.13 90073.91 88935.14 87672.54 86360.88 84836.63 83014.87 
 81074.19 79040.41 76769.76 74556.93 72292.61 69939.77 67386.01 64638.34 61993.27 59437.17 
 56696.83 54159.57 51808.25 49534.69 47233.84 44880.71 42655.21 40526.89 38271.23 35922.41 
 33681.03 31602.44 29627.32 27645.21 25623.04 23676.50 21794.67 19921.42 18008.21 16118.68 
 14365.53 12885.89 11689.57 10495.34 9301.11  8311.23  7288.41  6393.45  5617.29  5010.16  
 4458.45  3979.04  3500.21  3109.78  2787.43  2527.76  2290.59  2077.56  1899.22  1758.52  
 1617.33  1468.42  1334.48  1218.11  1122.33  1026.71  951.64   887.17   832.31   784.14   
 742.35   705.87   673.45   645.70   619.60   595.09   572.53   552.59   533.99   516.18   
 499.38   484.30   470.45   456.79   443.09   429.65   416.73   404.29   392.26   381.54   
 371.57   362.14   352.41   341.14   329.03   317.22   305.41   293.12   281.99   269.93   
 257.60   243.99   229.68   216.19   203.36   191.41   179.25   166.17   152.43   138.25   
 120.93   103.58   72.48    34.60    26.13    22.96    20.66    17.38    17.81    19.14    
 20.63    22.17    23.84    25.62    27.43    29.40    31.75    34.12    36.22    38.51    
 47.24    48.57    45.68    49.00    52.86    57.30    62.05    67.17    72.69    78.51    
 84.66    91.13    97.81    104.99   112.42   119.64   126.93   134.68   142.10   151.22   
 156.90   
135415.72 140427.41 145977.72 151815.63 157655.20 163285.32 167449.67 169899.47 169316.28 167637.97 
 164255.90 159707.13 155916.39 152023.55 148287.61 144984.68 141490.53 137372.87 132860.47 128058.59 
 123320.25 118646.13 114374.04 110687.55 107909.47 105614.25 103628.40 102137.34 100950.17 99485.96 
 97885.08 96146.56 94282.40 92254.99 89920.37 87625.68 84627.18 81558.95 78334.01 75029.02 
 71707.01 68617.71 65623.23 62942.09 60401.21 58263.81 56468.89 54571.52 52449.60 50252.45 
 48107.49 45985.26 43765.98 41445.14 39111.35 36906.40 34786.87 32802.49 30755.11 28788.51 
 26896.06 24861.65 22827.53 20818.82 18954.55 17236.97 15727.77 14413.14 13143.04 12016.05 
 11006.68 10049.67 9137.86  8183.19  7330.02  6570.21  5919.63  5329.26  4760.28  4256.97  
 3758.23  3340.40  2952.88  2661.39  2370.69  2143.65  1941.67  1764.77  1614.38  1494.72  
 1392.57  1276.08  1164.62  1062.01  974.41   903.00   840.20   790.59   744.44   705.20   
 674.25   647.91   624.75   604.48   585.19   567.80   552.68   537.92   523.90   510.50   
 498.29   485.95   474.36   463.29   452.39   440.91   428.25   414.99   402.42   389.51   
 377.82   366.89   356.44   345.91   335.72   325.63   316.20   307.25   298.35   290.37   
 282.21   273.99   265.70   257.31   248.00   238.70   229.39   219.71   208.57   197.72   
 185.51   171.59   157.96   138.80   121.26   114.29   106.90   98.53    63.78    35.09    
 28.71    24.64    20.27    19.75    21.72    23.75    25.83    28.19    30.84    33.70    
 36.73    39.64    42.57    50.35    61.60    51.27    55.50    59.71    65.44    70.44    
 76.21    82.34    88.73    95.19    101.97   109.48   117.69   125.88   134.68   144.14   
 156.90   
135415.72 141031.58 147389.87 153535.37 159734.87 164588.74 167937.88 167802.90 166300.49 162724.37 
 158370.73 154614.32 151077.75 147868.95 144129.94 139869.68 135073.56 130014.42 124873.32 120100.67 
 115760.40 112599.86 110133.20 107994.38 106414.81 104911.35 103372.67 101667.31 99789.42 97449.39 
 94783.31 91947.41 88784.26 85232.80 81626.31 78174.40 74743.66 71428.41 68365.03 65283.32 
 62324.44 59346.90 56480.37 54083.53 52310.68 50730.05 49230.51 47735.60 46208.93 44427.42 
 42525.85 40562.68 38626.69 36663.18 34758.98 32843.41 31015.14 29227.38 27324.66 25079.04 
 22958.00 21018.26 19261.09 17724.03 16407.45 15069.09 13861.61 12782.43 11732.18 10839.92 
 9948.95  9026.52  8114.41  7356.37  6698.05  6106.29  5528.43  4906.40  4357.68  3888.97  
 3483.39  3112.59  2791.65  2500.92  2261.51  2045.55  1851.95  1681.50  1537.04  1419.79  
 1319.30  1210.89  1098.77  986.63   894.01   817.29   756.64   707.67   666.40   629.70   
 596.90   571.34   551.56   534.48   520.20   506.29   493.07   481.46   470.39   459.45   
 449.17   438.80   428.35   418.20   408.61   399.38   390.76   381.90   371.94   361.84   
 352.86   343.98   335.01   326.09   317.77   309.94   302.50   294.67   287.00   279.43   
 271.69   264.68   256.99   249.33   242.16   232.90   219.46   212.46   206.28   199.42   
 192.09   184.10   176.57   169.04   161.48   154.21   145.57   134.65   127.10   119.59   
 103.99   34.10    24.88    22.17    21.29    22.73    25.36    28.11    30.49    33.48    
 36.83    40.58    44.44    47.38    52.16    75.20    56.83    60.45    65.39    70.88    
 76.60    82.71    89.12    95.25    101.67   108.88   116.11   124.99   134.15   143.09   
 156.90   
135415.72 140984.97 147296.23 153464.81 159587.04 164141.77 166556.87 165687.46 163760.05 159468.40 
 155273.21 151583.48 148148.00 144795.42 140737.57 136225.53 131099.87 125901.65 120912.64 116539.15 
 113258.90 110765.73 108578.49 107217.09 105748.56 104248.58 102426.85 100478.80 98215.72 95408.29 
 92362.03 89097.68 85462.41 81947.55 78582.89 75203.89 71956.24 68778.23 65469.46 62137.95 
 58891.53 56130.55 54146.81 52603.81 51176.50 49832.40 48494.98 47048.94 45442.27 43629.19 
 41748.62 39844.20 37927.93 36012.70 34077.09 32205.46 30391.84 28453.77 26357.17 24260.57 
 22167.22 20346.13 18716.55 17343.88 16046.65 14775.15 13653.12 12622.94 11698.55 10799.50 
 9837.44  8973.09  8069.50  7398.11  6744.83  6129.69  5517.19  4895.63  4366.42  3916.70  
 3507.50  3135.32  2844.01  2552.70  2262.18  2035.72  1832.74  1653.98  1505.19  1382.89  
 1284.35  1183.17  1065.45  954.95   856.90   775.22   708.93   655.96   613.16   575.40   
 542.10   514.81   495.73   480.40   468.01   457.20   447.29   437.91   429.23   421.09   
 413.01   405.06   396.90   388.82   380.92   373.46   366.26   359.14   352.11   344.94   
 337.20   330.21   323.58   317.20   310.57   304.02   297.47   291.00   284.50   277.90   
 271.31   264.56   257.48   250.40   242.92   235.44   227.89   214.01   207.85   202.02   
 196.71   191.11   184.67   177.83   171.26   164.21   157.22   150.01   142.96   136.24   
 127.41   105.12   28.96    25.75    24.03    23.99    26.00    29.33    32.49    35.73    
 39.44    43.42    47.83    52.32    56.12    73.48    73.61    64.78    69.78    75.31    
 81.01    86.96    93.12    99.14    105.26   112.05   119.78   128.01   136.88   146.30   
 156.90   
135415.72 140901.87 146794.34 152729.22 158198.31 162168.32 163797.42 162714.37 160764.90 156695.82 
 152857.84 149272.48 146064.97 143032.84 139500.94 135220.97 130501.63 125535.69 120895.68 116481.65 
 112808.79 110277.00 107923.57 106295.56 104935.89 103519.65 101973.71 100305.98 98343.66 95917.27 
 93150.18 90278.24 87057.28 83586.72 80106.18 76797.80 73510.40 70344.56 67328.89 64282.69 
 61216.64 58177.75 55397.18 53252.57 51590.95 50093.94 48700.06 47232.65 45725.49 44073.10 
 42205.33 40287.92 38393.49 36507.10 34605.15 32746.08 30930.42 29142.54 27339.22 25246.04 
 23103.58 21189.27 19384.75 17854.90 16523.17 15236.29 14016.30 12937.75 11930.86 11041.59 
 10153.28 9209.58  8403.06  7520.11  6851.13  6242.89  5659.78  5066.60  4510.99  4012.84  
 3583.81  3219.65  2863.54  2566.28  2311.02  2087.49  1881.30  1701.03  1549.95  1426.89  
 1322.71  1224.65  1114.38  1004.01  908.58   826.92   761.55   708.62   665.12   627.13   
 593.32   564.93   544.49   527.58   513.31   500.33   488.68   477.86   467.82   457.95   
 448.52   439.68   431.02   421.98   413.32   405.22   397.42   390.33   381.22   371.28   
 361.88   352.36   342.80   333.58   325.01   315.92   307.43   298.65   290.53   282.73   
 274.80   266.54   257.84   247.86   238.46   226.81   215.82   212.44   208.70   202.90   
 195.82   188.25   180.88   172.79   164.99   156.94   146.45   135.51   126.67   106.72   
 86.68    35.24    29.64    26.39    24.42    26.26    29.91    33.71    37.75    42.16    
 46.86    51.91    57.10    61.96    73.35    85.10    73.64    77.67    82.14    86.98    
 92.50    97.92    103.68   109.31   115.01   121.28   128.13   135.56   143.42   151.92   
 156.90   
135415.72 140130.50 145347.39 150518.23 155736.53 160034.97 162963.02 163695.76 162867.27 160946.51 
 157374.82 154035.41 150902.20 147737.01 144837.37 141654.13 137875.46 133485.49 128775.23 123974.64 
 119344.11 115071.71 111471.65 108394.14 106031.81 103855.99 102304.53 100849.72 99334.90 97692.94 
 96150.68 94431.67 92246.17 89838.60 87445.40 84936.94 81890.31 78799.72 75616.58 72507.59 
 69415.96 66467.19 63772.99 61198.20 58851.73 56705.46 54683.81 52653.38 50537.85 48476.38 
 46698.38 44857.94 43003.55 40971.96 38953.28 36835.34 34915.86 32961.74 31046.62 29136.87 
 27350.37 25448.78 23547.20 21646.14 19787.93 18074.80 16427.28 15002.20 13785.35 12604.75 
 11553.55 10592.64 9720.48  8872.52  7943.04  7148.93  6384.21  5763.67  5205.46  4672.17  
 4176.96  3695.60  3285.07  2920.84  2630.90  2341.77  2116.48  1915.05  1741.44  1593.88  
 1471.67  1370.92  1264.64  1150.60  1042.43  951.73   876.27   812.72   760.79   714.71   
 674.89   643.84   617.44   594.80   574.73   556.25   539.02   523.38   508.52   495.49   
 482.93   471.07   459.42   448.63   438.79   429.31   418.56   407.80   396.79   385.51   
 373.55   361.67   349.43   338.29   327.42   317.44   307.69   298.57   289.41   280.60   
 272.21   263.81   255.59   247.33   238.56   229.79   221.00   210.93   200.30   190.09   
 179.12   168.32   157.78   145.80   133.08   123.44   112.24   93.84    43.21    32.75    
 29.99    26.89    26.14    29.47    33.13    36.99    41.11    45.50    50.18    55.29    
 60.85    66.21    71.89    86.37    79.03    83.52    88.23    93.32    98.48    104.28   
 109.50   114.12   118.82   124.11   129.66   135.50   141.78   148.32   155.07   162.19   
 156.90   
135415.72 139198.40 143500.12 147763.20 152119.36 156600.26 160220.51 163043.77 164270.41 163577.98 
 162156.84 159419.10 155666.73 152248.27 148778.10 145552.70 142345.70 139289.32 136281.02 132803.11 
 129211.96 125472.08 121458.77 117353.64 113197.20 109203.74 105775.88 102582.93 99592.70 97132.65 
 95031.25 93193.55 91599.23 90298.64 89125.04 87960.27 86698.30 85268.22 83588.44 81801.27 
 80172.24 78342.81 76138.44 73922.83 71746.01 69441.23 67057.56 64560.43 62007.92 59443.30 
 56827.34 54479.59 52200.52 50089.16 48103.71 46080.53 44029.78 42033.25 39955.48 37791.46 
 35618.97 33491.15 31524.84 29532.95 27630.15 25662.13 23728.48 21861.24 20006.24 18081.33 
 16346.48 14636.50 13125.44 11739.89 10627.45 9517.66  8553.44  7619.73  6708.75  5902.03  
 5262.19  4733.37  4209.36  3733.64  3333.74  2979.88  2683.95  2438.98  2214.19  2020.71  
 1851.15  1708.99  1570.62  1428.33  1298.63  1183.16  1090.24  997.55   923.55   857.05   
 800.47   752.45   711.10   674.59   642.11   613.75   587.40   564.13   543.39   523.64   
 505.23   488.18   471.74   456.28   441.81   428.19   414.24   399.60   384.88   371.26   
 358.37   346.50   335.45   325.26   314.82   304.12   292.82   280.59   269.14   258.90   
 249.65   238.24   225.75   212.87   199.52   186.63   175.11   163.64   151.83   137.68   
 120.04   102.39   71.01    44.38    34.44    28.41    26.45    27.70    30.73    33.97    
 37.42    41.06    44.92    48.99    53.17    57.60    62.25    66.91    71.73    82.38    
 85.84    84.38    88.89    93.47    98.06    102.76   107.34   111.97   116.52   121.05   
 125.65   130.35   135.18   140.17   145.16   150.29   155.63   161.21   166.77   172.62   
 156.90   
135415.72 137824.58 140759.25 143843.48 147108.51 150883.36 154471.54 157696.47 159800.88 160932.36 
 161748.10 161741.70 160792.23 159205.13 157197.77 154764.49 151756.68 148092.63 144676.69 141261.51 
 138145.37 134787.21 131685.04 128548.70 125484.08 122580.44 119831.40 117029.57 114035.25 111160.62 
 108547.42 105780.69 102764.75 99697.49 96561.73 93896.06 90912.20 87940.02 84972.50 82068.56 
 79288.59 76499.54 73984.40 71624.02 69204.57 67067.58 64834.70 62706.99 60610.62 58536.12 
 56347.40 54332.51 52264.71 50302.16 48256.68 46222.06 44114.53 42088.60 40067.35 38116.52 
 36212.54 34330.74 32361.97 30572.53 28857.87 27179.07 25660.04 24182.65 22705.23 21225.13 
 19863.86 18402.43 17053.02 15729.41 14425.91 13158.44 11926.04 10647.66 9490.95  8406.73  
 7503.52  6663.54  5882.23  5203.57  4590.52  4100.16  3674.74  3298.77  2978.42  2739.72  
 2501.01  2262.94  2081.07  1876.85  1685.37  1514.79  1366.35  1225.44  1101.03  984.53   
 894.10   815.16   747.36   687.09   635.79   591.46   552.56   518.58   488.27   460.62   
 437.14   417.51   401.60   381.14   362.61   345.90   330.03   313.12   297.05   281.23   
 264.73   248.19   231.65   215.14   201.46   188.24   175.33   163.00   150.12   135.84   
 119.96   101.38   80.84    62.89    48.22    43.24    34.46    24.79    25.91    28.20    
 30.68    33.34    36.24    39.21    42.37    45.78    49.31    53.29    57.55    61.84    
 66.37    71.25    80.31    82.06    81.81    84.94    88.15    92.17    96.20    100.21   
 104.28   108.38   112.48   116.56   120.53   124.70   128.87   132.98   137.15   141.87   
 146.98   150.60   154.75   159.11   163.55   167.99   172.65   177.21   181.67   186.10   
 156.90   
135415.72 136525.18 137949.87 139602.70 141813.77 144081.26 145955.40 147017.86 147614.20 148505.42 
 149236.17 149580.59 149723.41 149697.31 149498.70 149252.05 148780.57 148100.40 147410.40 146487.29 
 145363.82 143783.84 142172.61 139985.70 137447.82 134938.21 132175.96 129531.83 126605.78 123723.49 
 120488.21 117117.49 113698.92 110120.58 106645.80 103451.92 99871.37 96497.80 93193.24 90074.30 
 86999.93 83887.14 80661.32 77745.31 75193.56 72283.46 69405.27 66511.79 63649.33 60857.14 
 57976.04 55296.10 52738.55 50151.07 47512.80 45041.17 42524.39 40201.61 38001.03 35700.28 
 33593.29 31613.85 29734.77 28008.12 26279.06 24565.50 22925.93 21306.44 19792.11 18251.43 
 16850.57 15536.43 14245.92 13029.71 11891.91 10878.41 9866.09  8894.28  8020.96  7258.06  
 6560.35  5911.68  5297.31  4741.92  4266.92  3839.57  3434.73  3053.72  2710.36  2406.34  
 2142.87  1913.64  1735.55  1556.30  1379.01  1216.78  1078.50  940.46   827.68   723.19   
 624.33   546.01   477.16   420.58   370.24   325.48   287.41   254.11   225.65   200.37   
 178.26   158.89   141.88   127.14   113.20   99.25    86.19    74.17    64.18    39.28    
 19.85    18.03    18.91    20.13    21.53    23.02    24.73    26.64    28.87    31.44    
 33.99    36.78    39.61    42.40    45.52    48.36    50.94    53.20    55.91    58.70    
 61.60    64.61    67.41    70.37    73.64    78.28    82.17    84.60    88.90    92.68    
 95.44    98.11    100.95   102.99   106.17   109.70   113.35   117.01   120.61   124.27   
 128.03   131.87   135.61   139.55   143.55   147.26   151.24   155.46   159.58   164.00   
 168.14   172.18   176.00   179.82   183.70   187.68   191.57   195.35   198.90   202.33   
 156.90   
135415.72 135245.12 135263.27 135594.54 136415.88 136949.50 136773.03 135839.05 135118.79 134241.90 
 132992.55 131543.59 130164.14 128964.94 127448.60 126212.13 124671.55 123155.48 121512.38 119915.47 
 118303.21 116523.43 114590.22 112479.89 110395.50 108427.07 106495.78 104136.37 101658.68 98805.32 
 96484.84 93776.64 90784.80 87729.91 84781.95 81663.75 78571.57 75280.25 72158.90 68815.95 
 65330.78 62086.75 59522.83 56911.33 54139.76 51330.48 48552.69 45795.18 43197.45 40501.66 
 38158.40 35884.02 33498.98 31148.40 28858.01 26731.71 24802.60 22839.85 20900.61 19149.11 
 17471.41 15878.61 14401.75 13077.65 11823.15 10693.68 9565.70  8550.92  7646.16  6819.83  
 6063.48  5324.45  4657.80  4057.46  3493.07  3000.17  2542.47  2127.19  1753.21  1428.59  
 1178.29  928.81   679.32   505.19   356.25   234.52   136.73   77.18    18.08    15.87    
 15.07    14.43    14.03    14.33    14.75    14.90    13.47    13.06    13.84    14.81    
 15.84    16.72    17.82    19.08    20.37    21.79    22.96    24.43    26.04    27.57    
 29.14    31.02    32.95    34.69    36.69    38.97    41.55    43.93    46.31    48.78    
 51.32    53.96    56.71    59.56    62.49    65.46    68.63    71.93    75.29    78.74    
 82.18    85.65    89.17    92.81    96.49    100.14   103.70   107.22   110.63   114.06   
 117.29   120.49   123.74   127.03   130.36   133.69   136.94   140.13   143.22   146.32   
 149.40   152.39   155.21   157.91   160.49   163.02   165.43   167.77   170.09   172.30   
 174.35   176.35   178.38   180.30   182.00   183.73   185.46   187.15   188.81   190.34   
 192.61   193.52   193.92   194.19   194.40   194.26   193.84   193.12   192.37   191.14   
 156.90   
135415.72 133856.85 132707.76 132183.20 132135.36 132148.15 131798.68 130394.30 129037.95 127728.64 
 125722.20 122686.50 118199.05 113914.12 109903.28 106114.20 102930.60 98642.77 94715.51 90865.35 
 87372.05 83704.18 79237.93 74122.19 69870.59 66477.64 63318.47 59037.88 55039.35 50851.31 
 47306.60 43509.67 39962.54 36593.88 33499.32 30141.82 26939.44 24531.48 22125.99 19988.24 
 18168.30 16391.36 14682.01 13258.64 12099.45 10917.33 9711.35  8515.09  7272.28  6129.76  
 5002.80  4103.48  3313.08  2753.19  2194.92  1845.29  1551.12  1287.48  1052.80  863.25   
 699.05   565.58   454.02   361.94   301.63   241.32   181.21   145.90   118.23   98.34    
 80.96    66.14    57.70    49.03    42.16    36.61    31.49    25.93    21.63    19.01    
 17.20    15.32    13.56    11.85    10.77    9.74     9.13     9.45     9.99     10.60    
 11.27    12.01    12.79    13.66    14.60    15.60    16.67    17.83    19.07    20.35    
 21.67    23.05    24.56    26.16    27.84    29.55    31.29    33.21    35.21    37.32    
 39.45    41.69    44.12    46.65    49.16    51.89    54.65    57.42    60.23    63.23    
 66.29    69.51    72.80    76.06    79.36    82.77    86.33    90.08    93.76    97.55    
 101.42   105.33   109.45   113.56   117.56   121.39   125.36   128.88   132.04   135.27   
 138.97   143.26   146.26   148.18   151.08   154.37   157.67   160.95   164.13   167.25   
 170.33   173.29   176.07   178.84   181.50   183.99   186.32   188.39   190.45   192.24   
 193.72   195.06   196.24   197.32   198.28   199.34   200.27   200.98   201.41   201.94   
 201.81   201.23   200.20   198.93   197.30   195.04   192.41   189.54   186.51   183.06   
 156.90   
135415.72 132781.56 131239.25 130237.60 129566.16 129167.71 124952.56 118281.42 113484.53 107990.58 
 101183.30 95649.84 87556.38 80171.12 75830.62 68332.79 60954.05 55343.98 49136.56 44945.42 
 38826.54 33772.81 30969.53 28724.46 26653.60 24732.80 22829.62 21015.70 19241.76 17660.25 
 16009.16 13348.99 11551.02 9763.36  7975.70  6343.61  5372.31  4218.03  3396.32  2551.51  
 1817.83  1271.26  970.80   673.29   514.32   414.28   342.34   278.61   231.81   191.01   
 157.66   130.67   110.82   91.07    80.63    70.89    63.32    55.47    49.35    45.16    
 41.10    38.02    35.54    33.12    31.16    29.19    27.40    25.37    22.75    20.61    
 18.71    17.32    16.25    15.27    14.45    13.65    12.87    12.12    11.38    10.74    
 10.34    10.08    9.91     9.83     9.81     10.01    10.45    11.06    11.75    12.51    
 13.31    14.19    15.14    16.17    17.29    18.47    19.77    21.15    22.58    24.08    
 25.67    27.39    29.16    30.97    32.93    35.02    37.17    39.36    41.59    43.90    
 46.33    48.93    51.56    54.23    56.95    59.86    62.84    65.87    68.89    72.04    
 75.32    78.67    82.03    85.43    88.94    92.49    96.14    99.92    103.73   107.63   
 111.55   115.45   119.32   123.26   127.27   131.25   135.26   139.29   143.36   147.39   
 151.49   155.67   159.83   163.95   168.05   172.18   176.27   180.44   184.35   187.87   
 191.15   194.34   197.32   200.21   202.82   205.15   207.18   208.97   210.57   212.11   
 213.26   214.43   215.35   215.73   215.90   216.03   215.96   215.82   215.41   214.39   
 212.66   210.41   207.77   204.75   200.71   196.22   191.46   186.48   181.02   175.06   
 156.90   
135415.72 131812.22 129813.51 128228.88 126791.33 118393.79 112453.54 103877.41 97128.25 85904.79 
 79274.46 69438.54 61341.89 52041.82 46090.72 37432.60 33732.94 31128.71 28906.37 26889.73 
 24922.74 22955.86 20987.30 17375.18 15065.48 12163.00 9720.47  7846.99  5989.69  4711.55  
 3183.40  1661.38  947.24   606.16   439.60   329.62   255.43   181.57   143.42   118.49   
 99.83    85.85    73.08    64.42    57.54    52.17    47.80    44.92    42.06    39.51    
 37.46    35.31    33.14    31.24    29.09    26.67    24.76    24.24    24.12    23.65    
 22.62    21.33    19.93    18.40    17.30    16.31    15.57    14.79    14.04    13.41    
 12.77    12.16    11.65    11.15    10.65    10.22    9.90     9.66     9.51     9.42     
 9.42     9.44     9.50     9.58     9.75     10.06    10.52    11.04    11.59    12.22    
 12.90    13.65    14.42    15.31    16.30    17.32    18.37    19.54    20.77    22.11    
 23.48    24.95    26.49    28.14    29.90    31.73    33.57    35.56    37.62    39.77    
 41.95    44.19    46.55    48.99    51.48    54.10    56.73    59.40    62.12    64.99    
 67.96    71.10    74.30    77.47    80.66    84.07    87.58    91.22    94.90    98.70    
 102.65   106.74   110.94   115.25   119.62   124.13   128.77   133.54   138.30   143.19   
 148.21   153.24   158.31   163.38   168.47   173.58   178.59   183.50   188.32   193.00   
 197.65   202.06   206.19   210.41   214.42   218.13   221.54   224.61   227.27   229.29   
 231.01   232.47   233.38   234.10   234.24   233.87   233.21   231.97   229.96   227.55   
 224.29   220.41   216.04   210.71   204.73   198.07   191.19   184.01   176.75   168.71   
 156.90   
135415.72 131301.15 128958.99 127075.70 119527.05 110811.52 100445.35 91024.10 80285.70 69838.54 
 60449.31 50221.57 41686.16 35403.74 32563.48 30263.49 28098.61 25945.14 23815.74 20122.09 
 16553.01 13341.05 10798.23 8263.04  5727.85  3668.79  1585.25  1139.92  711.36   282.80   
 197.54   149.08   125.95   103.11   80.27    69.35    59.97    52.90    47.12    43.59    
 39.84    36.41    33.61    30.84    28.48    27.34    25.51    23.82    22.67    21.47    
 20.67    19.97    19.05    18.13    17.21    16.36    15.63    14.83    13.95    13.12    
 12.37    11.85    11.37    11.00    10.69    10.42    10.13    9.85     9.64     9.52     
 9.42     9.30     9.17     9.03     8.92     8.80     8.74     8.70     8.68     8.68     
 8.68     8.71     8.77     8.90     9.09     9.34     9.65     10.00    10.38    10.83    
 11.32    11.88    12.53    13.26    14.07    14.95    15.91    16.93    18.05    19.28    
 20.56    21.94    23.38    24.96    26.59    28.35    30.16    32.08    34.06    36.14    
 38.31    40.62    42.99    45.46    47.98    50.65    53.38    56.15    59.00    61.95    
 64.86    67.81    70.85    74.00    77.09    80.24    83.45    86.82    90.19    93.65    
 97.13    100.66   104.29   108.07   112.16   116.42   120.84   125.33   130.04   134.84   
 139.71   144.81   150.20   155.72   161.37   167.14   172.94   178.96   184.90   190.63   
 196.19   201.52   206.62   211.50   216.17   220.58   224.70   228.59   232.27   235.74   
 238.52   243.82   245.35   246.59   246.91   246.52   245.30   243.24   240.64   237.38   
 233.51   228.76   223.25   216.36   208.44   200.81   192.44   183.58   174.89   165.25   
 156.90   
135415.72 130652.63 128006.72 125658.05 116201.76 106087.88 96105.08 82922.02 73134.23 60719.16 
 49968.16 40945.97 34282.23 31521.50 29286.28 27170.32 25065.12 22934.24 18174.69 14316.74 
 10699.57 8866.04  5921.01  4478.96  3036.91  1594.86  165.53   121.90   68.67    48.24    
 35.42    27.26    23.12    20.86    19.16    17.93    16.97    16.25    15.65    14.89    
 14.19    13.68    13.20    12.72    12.42    12.18    11.93    11.76    11.56    11.36    
 11.37    11.33    11.16    10.67    10.00    9.38     8.89     8.44     8.09     8.01     
 8.12     8.17     8.17     8.07     7.88     7.62     7.34     7.09     6.85     6.68     
 6.56     6.41     6.28     6.20     6.19     6.19     6.20     6.24     6.33     6.45     
 6.58     6.74     6.91     7.09     7.30     7.52     7.77     8.05     8.38     8.74     
 9.15     9.60     10.10    10.64    11.25    11.91    12.63    13.44    14.30    15.29    
 16.30    17.40    18.56    19.84    21.22    22.68    24.18    25.75    27.46    29.24    
 31.09    33.02    35.03    37.15    39.29    41.62    43.98    46.37    48.89    51.51    
 54.29    57.28    60.35    63.36    66.52    69.77    73.22    76.78    80.33    83.94    
 87.54    91.20    94.99    98.75    102.59   106.50   110.64   114.91   119.20   124.22   
 129.23   134.22   139.38   144.75   150.30   156.08   162.03   168.24   174.59   180.97   
 187.53   193.92   200.17   206.38   212.45   218.40   224.38   229.28   234.04   238.19   
 241.77   245.01   247.58   249.66   249.93   250.35   249.39   247.63   245.04   241.45   
 236.98   231.85   225.63   218.46   211.19   203.30   194.16   184.56   174.28   164.38   
 156.90   
135415.72 130567.10 127859.56 125669.98 115269.57 105641.93 95376.62 80859.22 70605.21 59221.64 
 47958.43 37428.55 33185.80 30702.99 28361.34 26108.11 24039.61 19245.64 16025.10 12342.46 
 9264.29  6193.43  3859.48  1816.33  1357.87  916.78   475.69   34.61    23.06    19.87    
 17.55    15.69    14.73    13.55    12.47    11.67    10.83    10.17    9.68     9.26     
 8.86     8.72     8.51     8.28     8.16     8.01     7.65     7.40     7.10     6.88     
 6.99     7.22     7.38     7.51     7.56     7.54     7.37     7.09     6.86     6.56     
 6.25     5.99     5.81     5.66     5.50     5.38     5.32     5.27     5.23     5.18     
 5.15     5.14     5.13     5.12     5.13     5.13     5.16     5.22     5.30     5.39     
 5.51     5.68     5.89     6.11     6.35     6.62     6.93     7.28     7.65     8.06     
 8.49     8.95     9.46     10.00    10.59    11.24    11.96    12.74    13.60    14.52    
 15.54    16.65    17.82    19.06    20.42    21.85    23.33    24.87    26.47    28.11    
 29.93    31.82    33.75    35.65    37.62    39.72    41.93    44.20    46.53    48.96    
 51.63    54.36    57.17    60.09    63.21    66.35    69.70    73.16    76.77    80.47    
 84.22    88.03    91.96    95.98    99.97    104.04   108.15   112.33   116.62   120.99   
 125.57   130.34   135.38   140.63   145.95   151.44   157.14   163.17   169.51   175.84   
 182.49   189.22   195.80   202.25   208.65   214.84   220.73   226.21   231.14   235.50   
 239.48   243.46   245.83   247.71   248.77   248.82   247.79   245.62   242.49   237.75   
 231.82   225.67   219.72   213.89   207.31   200.19   193.98   184.55   176.28   167.51   
 156.90   
