IESNA:LM-63-2002
[TEST] 1
[TESTLAB] AOK
[TESTDATE] 2022-06-09
[ISSUEDATE] 2022-06-10 09:02:20
[NEARFIELD] 
[LAMPPOSITION] 0,0
[OTHER] EVERFINE GO-2000A_V1 SYSTEM
[MANUFAC] AOK
[LUMCAT] A
[LUMINAIRE] AOK-400WiSF-HV-S35-00-5070-2030D-P
[LAMPCAT] B
[LAMP] 3535
[BALLAST] E
[BALLASTCAT] F
[OTHER] 
[OTHER] Gamma(deg)    Fz(lm)      Ft(lm)     %Lum    %Lamp
[OTHER]   0- 10     16908.45    16908.45    31.83    31.83
[OTHER]  10- 20     18351.68    35260.13    66.38    66.38
[OTHER]  20- 30      7312.53    42572.66    80.14    80.14
[OTHER]  30- 40      3751.21    46323.87    87.20    87.20
[OTHER]  40- 50      2373.93    48697.80    91.67    91.67
[OTHER]  50- 60      1834.18    50531.99    95.13    95.13
[OTHER]  60- 70      1242.84    51774.83    97.47    97.47
[OTHER]  70- 80       588.00    52362.83    98.57    98.57
[OTHER]  80- 90       239.43    52602.27    99.02    99.02
[OTHER]  90-100       128.81    52731.08    99.27    99.27
[OTHER] 100-110        93.53    52824.61    99.44    99.44
[OTHER] 110-120        76.17    52900.78    99.58    99.58
[OTHER] 120-130        57.97    52958.75    99.69    99.69
[OTHER] 130-140        42.50    53001.25    99.77    99.77
[OTHER] 140-150        35.81    53037.06    99.84    99.84
[OTHER] 150-160        39.25    53076.31    99.92    99.92
[OTHER] 160-170        32.90    53109.21    99.98    99.98
[OTHER] 170-180        12.08    53121.29   100.00   100.00
[OTHER] 
TILT=NONE
1 53121 1 181 25 1 2 0.150 0.200 0.000
1.000 1 409.88
0.0    1.0    2.0    3.0    4.0    5.0    6.0    7.0    8.0    9.0    
 10.0   11.0   12.0   13.0   14.0   15.0   16.0   17.0   18.0   19.0   
 20.0   21.0   22.0   23.0   24.0   25.0   26.0   27.0   28.0   29.0   
 30.0   31.0   32.0   33.0   34.0   35.0   36.0   37.0   38.0   39.0   
 40.0   41.0   42.0   43.0   44.0   45.0   46.0   47.0   48.0   49.0   
 50.0   51.0   52.0   53.0   54.0   55.0   56.0   57.0   58.0   59.0   
 60.0   61.0   62.0   63.0   64.0   65.0   66.0   67.0   68.0   69.0   
 70.0   71.0   72.0   73.0   74.0   75.0   76.0   77.0   78.0   79.0   
 80.0   81.0   82.0   83.0   84.0   85.0   86.0   87.0   88.0   89.0   
 90.0   91.0   92.0   93.0   94.0   95.0   96.0   97.0   98.0   99.0   
 100.0  101.0  102.0  103.0  104.0  105.0  106.0  107.0  108.0  109.0  
 110.0  111.0  112.0  113.0  114.0  115.0  116.0  117.0  118.0  119.0  
 120.0  121.0  122.0  123.0  124.0  125.0  126.0  127.0  128.0  129.0  
 130.0  131.0  132.0  133.0  134.0  135.0  136.0  137.0  138.0  139.0  
 140.0  141.0  142.0  143.0  144.0  145.0  146.0  147.0  148.0  149.0  
 150.0  151.0  152.0  153.0  154.0  155.0  156.0  157.0  158.0  159.0  
 160.0  161.0  162.0  163.0  164.0  165.0  166.0  167.0  168.0  169.0  
 170.0  171.0  172.0  173.0  174.0  175.0  176.0  177.0  178.0  179.0  
 180.0  
0.0    15.0   30.0   45.0   60.0   75.0   90.0   105.0  120.0  135.0  
 150.0  165.0  180.0  195.0  210.0  225.0  240.0  255.0  270.0  285.0  
 300.0  315.0  330.0  345.0  360.0  
229073.89 227947.02 225161.20 219410.07 206566.53 167719.51 137088.93 108511.67 75459.17 55526.31 
 34134.32 24721.53 14578.11 9743.04  4966.05  189.05   99.19    57.01    45.14    34.62    
 29.04    24.33    20.27    17.78    15.56    14.33    13.17    11.62    10.49    9.86     
 9.45     9.16     8.84     8.18     7.11     6.25     5.88     5.75     5.66     5.53     
 5.66     5.71     5.61     5.16     5.03     4.78     4.76     4.98     5.10     4.98     
 4.72     4.52     4.45     4.42     4.38     4.38     4.40     4.23     4.12     4.01     
 3.89     3.82     3.68     3.51     3.39     3.27     3.15     3.00     2.89     2.79     
 2.71     2.63     2.57     2.51     2.47     2.44     2.44     2.44     2.43     2.44     
 2.48     2.51     2.55     2.61     2.73     2.93     3.07     3.18     3.28     3.35     
 3.42     3.48     3.57     3.62     3.63     3.63     3.67     3.74     3.83     3.97     
 4.14     4.32     4.53     4.77     5.02     5.30     5.57     5.85     6.14     6.41     
 6.67     6.94     7.20     7.46     7.73     8.01     8.33     8.68     9.06     9.47     
 9.89     10.34    10.83    11.32    11.82    12.38    12.99    13.61    14.26    14.94    
 15.63    16.37    17.12    17.88    18.68    19.57    20.58    21.78    23.21    24.83    
 26.66    28.73    31.01    33.70    36.72    40.15    44.06    48.51    53.68    59.99    
 67.50    76.05    85.59    95.82    106.28   117.18   129.00   141.23   153.14   164.58   
 175.52   186.15   195.99   204.07   210.28   214.55   216.78   216.94   215.24   211.86   
 207.17   201.20   194.27   186.73   178.85   170.47   162.06   153.36   143.79   134.01   
 122.94   
229073.89 228949.58 226889.25 222680.62 215468.22 187904.85 151732.74 125931.07 97374.18 66751.75 
 52416.57 42106.26 31795.94 21485.62 11175.31 959.04   920.19   729.41   534.69   339.98   
 146.94   172.62   176.84   119.14   124.06   122.68   102.50   62.33    57.91    39.15    
 25.33    18.11    15.50    13.42    11.85    9.92     8.36     7.24     6.57     5.96     
 5.57     5.31     5.26     5.28     5.22     5.01     4.80     4.64     4.48     4.29     
 4.07     3.90     3.80     3.62     3.50     3.40     3.28     3.17     3.05     2.94     
 2.86     2.77     2.69     2.59     2.54     2.48     2.42     2.38     2.36     2.32     
 2.29     2.23     2.18     2.13     2.10     2.09     2.08     2.07     2.06     2.05     
 2.06     2.08     2.11     2.14     2.19     2.25     2.32     2.38     2.46     2.52     
 2.60     2.69     2.78     2.88     2.98     3.10     3.23     3.37     3.54     3.71     
 3.89     4.08     4.30     4.54     4.78     5.04     5.30     5.55     5.81     6.07     
 6.32     6.58     6.85     7.13     7.42     7.73     8.07     8.42     8.80     9.21     
 9.66     10.15    10.66    11.16    11.70    12.26    12.86    13.50    14.14    14.82    
 15.51    16.22    16.95    17.72    18.54    19.52    20.65    21.94    23.42    25.13    
 27.10    29.28    31.70    34.39    37.43    40.96    44.94    49.61    55.01    61.40    
 68.77    77.14    86.19    96.22    106.80   117.89   129.22   140.50   152.11   163.37   
 174.28   184.70   193.78   201.50   207.20   210.87   212.58   212.38   210.37   206.87   
 202.07   196.09   189.38   182.07   174.36   166.84   157.61   148.17   138.94   129.69   
 122.94   
229073.89 229356.22 227764.14 224877.44 219961.91 210074.43 177494.60 148010.16 122326.31 97261.40 
 67727.19 54467.64 34601.88 26824.40 16413.06 6494.80  3833.40  1245.78  1100.29  985.29   
 804.02   463.66   295.96   249.04   252.30   210.18   191.68   145.16   117.47   90.02    
 79.46    74.79    59.46    48.60    42.53    36.74    32.76    27.07    24.22    20.94    
 18.12    15.53    14.33    13.80    12.91    11.60    10.93    9.89     9.29     8.49     
 7.76     7.12     6.47     5.63     5.13     4.85     4.66     4.44     4.15     3.88     
 3.63     3.38     3.19     3.07     2.97     2.85     2.70     2.55     2.42     2.33     
 2.24     2.18     2.13     2.09     2.05     2.02     1.98     1.94     1.90     1.88     
 1.86     1.86     1.86     1.89     1.95     2.01     2.09     2.16     2.26     2.34     
 2.44     2.55     2.67     2.80     2.95     3.09     3.25     3.43     3.60     3.77     
 3.96     4.15     4.34     4.54     4.74     4.96     5.19     5.42     5.65     5.90     
 6.17     6.46     6.75     7.06     7.39     7.72     8.07     8.44     8.82     9.23     
 9.64     10.07    10.54    11.01    11.50    11.99    12.50    13.08    13.68    14.33    
 15.03    15.80    16.69    17.68    18.83    20.16    21.66    23.28    25.14    27.19    
 29.43    31.97    34.90    38.20    41.88    46.01    50.72    56.18    62.36    69.22    
 76.77    84.96    93.78    103.09   112.96   123.08   133.36   143.84   154.36   164.55   
 173.93   182.35   189.44   195.04   199.14   201.57   202.41   201.69   199.61   196.23   
 191.69   186.84   180.86   174.12   167.16   159.70   151.79   143.67   136.02   128.74   
 122.94   
229073.89 230168.54 229383.33 227753.29 224975.17 219221.16 210800.74 188774.72 157551.63 135735.34 
 112954.44 93391.42 68097.08 52609.03 42775.65 33204.45 23633.25 14113.95 9925.53  5737.11  
 1579.22  1389.83  965.82   662.87   462.34   361.40   272.80   184.62   140.16   113.57   
 96.29    83.71    74.04    66.08    59.41    52.93    47.42    42.63    38.01    34.13    
 30.66    27.71    25.12    22.49    19.72    16.63    14.65    13.20    12.11    11.19    
 10.38    9.67     9.05     8.45     7.80     7.30     6.86     6.48     6.12     5.79     
 5.50     5.23     4.95     4.68     4.44     4.25     4.06     3.88     3.69     3.50     
 3.30     3.09     2.89     2.71     2.56     2.42     2.28     2.15     2.05     1.94     
 1.82     1.74     1.74     1.76     1.80     1.86     1.93     2.02     2.10     2.20     
 2.30     2.42     2.53     2.66     2.79     2.93     3.08     3.24     3.40     3.56     
 3.73     3.91     4.10     4.31     4.53     4.74     4.96     5.20     5.45     5.70     
 5.96     6.23     6.53     6.82     7.12     7.43     7.75     8.07     8.40     8.75     
 9.13     9.53     9.95     10.39    10.88    11.41    11.98    12.63    13.34    14.13    
 15.03    16.05    17.17    18.41    19.78    21.34    23.04    24.96    27.06    29.41    
 32.15    35.11    38.49    42.28    46.55    51.37    56.62    62.42    68.68    75.64    
 83.05    91.03    99.23    108.11   117.13   126.35   135.56   144.27   152.88   160.84   
 168.00   174.27   179.49   183.71   186.71   188.60   189.31   188.94   187.76   185.03   
 181.42   177.43   173.07   168.07   162.76   157.04   150.67   144.39   138.69   133.12   
 122.94   
229073.89 230226.16 230051.75 228568.04 225489.16 219619.87 211403.22 203430.82 194331.37 181365.93 
 161310.78 134723.37 113529.33 97642.39 80704.49 66631.38 55384.79 40310.81 30544.62 24244.25 
 18048.93 11544.86 9045.29  6591.75  4962.89  4123.85  1561.32  1211.31  884.13   556.95   
 401.00   296.17   224.49   183.13   152.00   128.30   109.84   91.44    78.56    67.06    
 57.78    50.02    43.73    38.69    34.45    30.80    27.98    25.41    23.30    21.36    
 19.40    17.72    15.98    14.18    12.39    10.86    9.93     9.30     8.71     8.22     
 7.88     7.60     7.36     7.10     6.88     6.68     6.49     6.33     6.17     6.00     
 5.85     5.68     5.50     5.29     5.01     4.73     4.39     4.02     3.64     3.24     
 2.86     2.44     2.05     1.93     1.93     1.95     2.02     2.10     2.18     2.26     
 2.36     2.46     2.57     2.70     2.83     2.96     3.12     3.28     3.45     3.62     
 3.81     4.01     4.22     4.43     4.65     4.89     5.13     5.38     5.61     5.87     
 6.13     6.39     6.67     6.95     7.24     7.54     7.84     8.16     8.51     8.87     
 9.25     9.65     10.10    10.60    11.12    11.71    12.37    13.13    13.95    14.86    
 15.86    16.91    18.10    19.41    20.87    22.52    24.45    26.57    29.01    31.75    
 34.85    38.31    42.29    46.77    51.66    56.99    62.65    68.73    75.36    82.30    
 89.49    96.93    104.61   112.42   120.33   127.99   135.40   142.57   149.36   155.52   
 161.07   165.92   170.00   173.28   175.85   177.50   178.33   179.00   178.32   176.85   
 174.70   171.72   168.42   164.77   161.03   156.80   152.31   147.65   143.14   138.14   
 122.94   
229073.89 230161.07 230404.53 229491.15 226321.21 220574.85 213014.47 205765.67 196612.16 187216.05 
 177047.90 166665.22 153494.23 139953.47 125641.00 111109.86 96645.80 82126.61 69310.35 56267.68 
 44966.16 34179.60 28414.71 22671.20 19468.32 16874.61 14262.52 11729.42 10328.94 8939.85  
 7760.15  6283.40  4927.59  3975.60  3268.41  2710.89  2154.17  1689.73  1391.01  1171.81  
 971.42   782.79   638.15   511.78   403.79   321.50   270.28   219.07   167.97   130.39   
 104.12   84.15    69.19    58.36    49.49    42.87    37.76    33.46    30.01    27.17    
 24.84    22.99    21.60    20.35    19.13    18.08    16.93    15.89    14.72    13.88    
 13.55    13.30    13.12    12.98    12.83    12.63    12.44    12.22    11.97    11.47    
 10.39    8.75     6.60     4.17     1.68     1.59     1.64     1.69     1.76     1.83     
 1.89     1.97     2.05     2.15     2.26     2.37     2.49     2.63     2.77     2.93     
 3.11     3.27     3.45     3.65     3.86     4.07     4.29     4.52     4.76     5.01     
 5.26     5.53     5.80     6.08     6.37     6.67     6.98     7.29     7.62     7.97     
 8.35     8.77     9.24     9.74     10.27    10.85    11.49    12.20    12.99    13.82    
 14.78    15.83    16.98    18.25    19.73    21.39    23.31    25.54    28.03    30.90    
 34.25    37.96    42.10    46.67    51.62    57.03    62.76    68.76    75.05    81.64    
 88.33    95.23    101.92   108.83   115.62   122.30   128.91   135.17   141.35   147.09   
 152.51   157.49   161.96   166.16   169.71   172.71   175.44   177.12   177.95   178.08   
 177.48   176.23   174.28   171.57   168.33   164.85   161.04   156.71   151.85   146.78   
 122.94   
229073.89 229667.84 229606.32 228654.58 225803.44 220389.10 213132.32 206007.47 197894.85 188810.02 
 179467.59 169458.93 158648.04 147104.48 133395.68 117449.99 100173.93 84716.32 71574.75 60231.90 
 50305.14 42467.92 36387.77 31729.99 27961.87 25023.81 22093.21 19792.33 17992.06 16341.02 
 14745.62 13135.18 11680.21 10327.48 9036.90  7878.42  6830.72  6036.90  5426.66  4891.66  
 4482.71  4174.86  3914.23  3656.95  3453.95  3316.35  3173.43  3051.70  2910.40  2722.70  
 2535.00  2347.19  2151.57  1972.60  1812.14  1664.94  1524.03  1403.64  1288.81  1172.22  
 1075.40  980.05   894.05   814.79   739.90   671.76   606.12   546.92   491.27   440.03   
 393.04   348.31   310.72   274.25   241.68   209.18   182.35   158.55   138.66   121.25   
 105.04   90.90    78.84    68.04    58.01    29.07    19.99    15.31    8.43     3.72     
 1.69     1.41     1.32     1.24     1.16     1.08     0.99     0.91     0.91     0.92     
 0.93     0.94     0.94     0.95     0.95     0.96     0.98     1.01     1.04     1.07     
 1.10     1.13     1.17     1.21     1.24     1.29     1.32     1.36     1.41     1.46     
 1.52     1.58     1.66     1.73     1.82     1.91     2.03     2.15     2.28     2.43     
 2.59     2.78     2.98     3.22     3.48     3.80     4.15     4.57     5.05     5.60     
 6.20     6.87     7.60     8.43     9.34     10.32    11.39    12.52    13.69    14.92    
 16.19    17.49    18.86    20.25    21.69    23.18    24.76    26.43    28.25    30.12    
 32.07    34.17    36.31    38.63    41.09    43.81    46.79    50.58    54.34    58.37    
 63.24    68.46    74.33    80.71    87.36    94.32    101.35   108.24   115.17   122.00   
 122.94   
229073.89 229680.46 229449.52 228170.31 225263.24 220500.94 213590.15 206426.82 198900.23 190589.12 
 180841.75 170453.34 158374.34 145573.99 131647.81 117205.71 102473.54 88079.63 74677.74 62419.45 
 52016.63 44280.79 38445.70 34249.14 30541.66 27455.06 25261.73 23324.28 21469.69 19694.37 
 18049.30 16354.44 14721.92 13148.87 11658.81 10387.71 9118.41  8084.19  7266.06  6615.08  
 6097.79  5695.15  5354.86  5077.63  4851.11  4662.46  4480.50  4319.31  4172.63  4036.83  
 3909.82  3775.37  3632.90  3476.02  3303.50  3129.24  2945.01  2761.89  2595.91  2432.86  
 2281.78  2145.12  2018.93  1900.00  1789.89  1677.48  1571.41  1469.78  1371.37  1273.39  
 1182.98  1098.43  1013.92  933.77   856.82   788.31   725.01   662.70   604.86   551.73   
 502.80   458.02   415.77   379.25   346.57   315.60   288.58   266.36   247.52   231.12   
 216.15   200.67   187.56   175.57   164.84   154.32   145.01   137.09   129.39   122.20   
 115.01   108.53   103.43   98.60    93.89    90.19    86.57    82.61    79.63    77.02    
 74.05    71.55    69.10    66.13    63.40    60.87    57.89    55.49    53.08    50.67    
 48.21    45.56    43.15    40.67    37.78    34.85    31.55    28.13    24.14    19.60    
 14.72    10.41    7.79     5.97     4.60     3.36     3.05     3.20     3.58     4.03     
 4.54     5.10     5.71     6.44     7.25     8.13     9.06     10.03    11.08    12.17    
 13.30    14.43    15.60    16.81    18.01    19.24    20.55    21.87    23.23    24.66    
 26.17    27.76    29.43    31.25    33.18    35.31    37.68    40.43    43.71    48.18    
 52.75    57.55    64.34    71.16    78.57    86.66    94.98    103.35   111.62   119.93   
 122.94   
229073.89 229556.98 228883.11 227239.48 224531.10 220682.57 215305.29 208685.05 200780.98 190533.41 
 178358.52 164085.14 148930.80 133290.63 118411.45 104525.48 91360.89 78521.49 67248.70 57736.34 
 50020.27 43758.38 39060.92 35234.33 32057.42 29409.65 27049.70 24811.90 22575.29 20434.86 
 18388.94 16379.37 14419.01 12595.06 11052.68 9673.22  8555.26  7658.47  6967.68  6478.36  
 6113.17  5822.45  5589.00  5384.95  5212.50  5054.40  4898.43  4754.59  4627.07  4502.03  
 4383.81  4270.73  4155.92  4029.86  3896.09  3743.97  3588.17  3423.84  3243.22  3065.45  
 2893.13  2744.65  2594.85  2445.20  2307.99  2169.91  2033.44  1902.57  1771.33  1648.43  
 1524.68  1404.76  1294.32  1192.93  1095.81  1001.64  908.42   823.47   745.49   674.88   
 607.98   546.72   492.41   445.99   404.71   370.48   342.71   319.17   298.68   281.46   
 266.21   251.47   236.72   222.01   211.03   201.38   192.04   183.66   175.80   168.39   
 162.33   156.23   150.70   145.61   141.23   136.83   133.05   129.54   126.18   123.14   
 120.34   118.00   115.54   112.86   110.59   108.30   106.17   103.95   101.97   99.95    
 97.93    96.22    94.62    92.56    90.57    88.68    86.58    84.47    82.53    80.54    
 78.84    76.57    74.72    72.82    70.83    68.76    66.26    63.65    60.91    58.00    
 54.67    50.94    47.81    44.74    41.10    37.18    34.45    17.60    11.99    10.24    
 10.55    11.67    13.02    14.41    15.85    17.31    18.79    20.29    21.82    23.38    
 24.93    26.46    28.04    29.72    31.47    33.33    35.37    37.61    40.13    43.10    
 46.86    51.57    57.66    64.33    72.03    80.27    89.85    99.49    109.68   119.58   
 122.94   
229073.89 228925.42 227276.53 224807.40 221499.86 217176.21 211224.11 202052.47 189326.83 172914.16 
 154290.21 135410.56 118246.94 103454.63 91393.82 80718.77 72093.15 64175.19 57082.68 51037.26 
 45793.04 41402.80 37311.62 33498.79 29786.82 26316.11 22882.81 19624.31 16724.12 14181.66 
 12229.12 11035.12 9848.07  9147.76  8608.28  8137.25  7739.10  7386.69  7042.77  6743.44  
 6455.33  6180.09  5931.71  5712.33  5501.18  5316.87  5147.97  4985.19  4825.65  4659.74  
 4481.48  4334.94  4213.06  4091.81  3972.16  3831.37  3692.38  3552.22  3408.44  3265.84  
 3114.05  2962.61  2818.33  2674.92  2535.91  2386.97  2246.71  2101.34  1961.92  1817.36  
 1671.55  1547.32  1426.38  1303.94  1185.08  1080.83  976.72   876.42   790.69   713.51   
 643.37   577.80   520.28   470.14   429.71   396.60   367.29   341.58   320.25   303.68   
 288.62   273.44   259.60   247.74   237.07   228.14   220.41   213.77   208.12   202.91   
 198.27   193.93   190.19   186.64   183.55   180.56   177.75   175.53   173.10   170.93   
 168.72   166.64   164.34   162.39   160.31   158.35   156.40   154.54   152.76   150.90   
 148.78   146.44   144.10   141.50   139.28   137.24   135.12   132.56   130.14   127.10   
 124.05   121.43   118.58   115.91   112.89   110.04   107.36   104.52   101.51   98.75    
 95.76    92.49    90.04    87.53    84.99    82.77    78.28    75.08    72.13    68.48    
 65.09    58.60    54.69    52.56    50.57    29.79    21.38    20.48    22.19    22.99    
 23.53    25.25    27.30    29.51    31.75    34.07    36.27    38.50    41.04    43.78    
 46.90    50.67    55.25    60.80    67.26    75.01    84.82    95.53    106.67   117.52   
 122.94   
229073.89 228516.26 226144.83 222733.19 218481.89 212383.88 202181.22 188072.29 169626.35 149368.17 
 128974.48 111018.02 96362.19 85103.63 75388.50 67489.67 61187.67 55589.13 50925.83 46566.73 
 41985.51 37256.41 32329.55 28036.09 23742.63 19468.94 16891.18 15239.62 14168.33 13327.60 
 12604.27 11953.88 11403.22 10884.55 10406.65 9900.32  9384.59  8918.02  8462.18  8068.82  
 7669.99  7310.17  6970.16  6672.12  6377.91  6069.11  5813.31  5587.12  5368.31  5134.08  
 4910.13  4712.30  4532.28  4374.72  4229.16  4088.12  3959.82  3829.15  3699.76  3578.40  
 3461.09  3316.01  3148.24  2983.20  2812.99  2636.57  2460.34  2301.88  2147.73  1990.64  
 1832.51  1681.00  1541.67  1407.84  1275.18  1164.10  1062.42  962.43   869.32   783.61   
 711.12   642.11   580.05   529.21   486.16   448.97   418.05   391.46   367.58   348.72   
 332.13   315.37   299.06   284.90   273.54   263.79   256.21   249.93   245.31   241.31   
 237.62   233.95   231.89   230.23   228.75   227.90   227.37   226.89   226.44   226.02   
 225.61   225.34   224.72   223.88   223.05   221.39   219.18   216.28   213.12   209.50   
 205.37   200.83   196.09   191.54   187.10   182.71   178.70   174.72   170.77   167.06   
 163.47   159.77   155.82   152.30   148.63   144.95   141.09   137.25   133.25   128.57   
 122.91   117.52   111.68   106.98   103.11   100.09   97.51    95.77    94.50    91.93    
 90.65    87.07    82.90    79.96    76.92    74.75    67.17    65.51    62.26    43.18    
 26.32    27.26    28.75    30.67    32.90    35.93    39.15    42.38    45.38    48.16    
 51.06    54.10    57.47    61.43    66.45    72.72    80.62    90.54    101.97   113.59   
 122.94   
229073.89 227516.82 224094.39 219621.71 213476.72 203436.10 188074.43 167914.74 145519.41 123810.09 
 104756.24 90815.99 80111.07 71337.20 64467.73 59111.23 54518.03 50477.90 46498.43 41761.93 
 36276.30 30720.70 25579.15 21685.31 19180.73 17833.38 17020.80 16320.92 15765.86 15247.74 
 14781.25 14346.82 13912.68 13399.58 12830.49 12201.68 11588.20 10974.84 10361.49 9771.75  
 9200.23  8692.89  8214.96  7759.31  7319.07  6918.19  6567.71  6224.05  5918.50  5634.89  
 5381.80  5159.02  4964.94  4808.73  4702.89  4652.34  4673.93  4713.75  4801.39  4671.88  
 4472.93  4254.02  3983.60  3757.46  3471.76  3216.69  2989.53  2730.18  2469.76  2214.93  
 2025.45  1860.93  1694.24  1550.67  1418.53  1301.30  1181.80  1079.45  977.25   889.14   
 804.35   731.22   667.77   613.98   565.63   525.43   488.32   456.32   430.31   408.93   
 388.96   368.75   348.45   330.91   315.94   302.87   292.37   284.52   278.12   273.45   
 269.92   267.39   265.90   265.03   264.72   264.63   264.98   265.19   264.68   263.64   
 262.68   262.03   261.81   261.55   261.16   260.29   258.73   256.70   253.75   249.72   
 245.33   240.42   234.65   228.61   222.44   216.44   210.01   203.66   198.06   192.63   
 187.49   182.49   177.54   172.75   168.19   163.67   159.15   147.81   141.77   137.97   
 134.11   130.24   126.26   122.26   118.25   114.37   110.30   106.61   102.88   99.15    
 96.29    93.44    91.98    89.71    84.93    84.19    83.21    80.94    75.17    71.43    
 66.95    35.58    31.86    34.80    37.87    41.36    45.30    49.37    53.27    56.82    
 59.91    62.81    65.33    67.71    70.77    75.34    81.39    90.02    100.43   111.96   
 122.94   
229073.89 227153.53 223269.81 218022.47 210423.11 198275.34 180837.42 158081.76 133723.67 111026.29 
 93454.83 81739.91 73063.45 66268.74 60921.46 56632.08 52804.65 49049.30 45060.62 40065.65 
 34299.36 28569.41 24754.24 20962.93 19305.10 18467.86 17872.87 17355.93 16981.53 16635.25 
 16239.37 15845.90 15362.55 14742.94 14134.27 13430.83 12656.78 11893.74 11150.49 10491.39 
 9854.09  9235.64  8658.65  8150.42  7675.75  7270.57  6892.96  6514.28  6181.75  5898.97  
 5633.97  5418.84  5231.08  5061.52  4951.25  5118.94  5352.00  5420.12  5504.27  5415.75  
 5090.08  4843.56  4409.32  4163.84  3911.06  3580.68  3317.56  2985.33  2697.21  2409.95  
 2196.80  1994.64  1815.76  1663.03  1524.11  1393.58  1270.67  1152.82  1052.24  956.71   
 869.71   791.13   726.12   666.19   613.55   566.63   527.26   492.03   462.91   438.00   
 415.80   393.69   371.26   351.61   333.84   319.02   306.13   295.84   287.74   281.05   
 276.07   272.81   270.51   268.91   267.91   267.13   266.44   266.21   264.98   263.33   
 260.89   258.50   256.54   254.89   253.15   251.45   249.49   247.13   244.32   239.56   
 234.79   230.03   224.85   219.48   213.92   208.30   202.59   197.07   191.87   186.79   
 181.89   177.17   172.42   167.70   163.10   158.65   154.15   149.59   137.49   132.03   
 128.66   125.45   122.13   118.68   115.25   111.97   108.78   105.79   103.03   100.41   
 97.62    96.06    94.79    93.75    92.99    92.29    91.48    90.47    87.47    76.33    
 73.99    69.44    37.61    40.48    43.88    48.00    52.49    57.23    61.70    65.78    
 69.20    72.19    74.61    76.50    78.40    81.02    84.95    91.13    99.79    110.80   
 122.94   
229073.89 226344.65 221915.27 216045.24 207998.96 195219.54 177002.00 154860.89 131597.98 110035.34 
 93038.63 81509.14 72803.95 66186.82 60862.93 56714.83 53105.01 49378.53 45571.70 41277.27 
 35869.72 30341.11 25401.70 21600.53 19501.10 18374.78 17735.83 17240.72 16832.33 16539.55 
 16208.31 15817.31 15275.30 14656.67 13950.23 13250.97 12535.93 11781.11 11073.13 10365.50 
 9744.54  9117.21  8562.45  8034.86  7588.21  7155.92  6788.82  6413.83  6085.79  5795.50  
 5520.32  5294.24  5108.35  4932.88  4796.43  4743.85  4855.44  4887.31  4875.91  4741.99  
 4530.74  4280.59  4053.94  3781.80  3570.60  3386.07  3092.19  2819.81  2547.63  2314.01  
 2137.78  1978.87  1797.68  1639.48  1500.77  1370.28  1251.09  1147.13  1043.31  939.48   
 853.22   778.04   708.44   650.47   600.25   556.83   516.21   481.18   452.61   429.15   
 408.02   386.70   366.07   346.95   330.49   315.78   302.81   292.71   283.76   277.03   
 270.96   266.41   262.61   259.25   256.15   252.84   249.97   246.87   243.26   239.34   
 235.37   231.57   228.13   224.85   221.58   218.49   215.13   211.70   207.86   203.33   
 199.32   195.22   190.99   186.85   182.75   178.82   174.77   170.71   166.97   163.43   
 159.90   156.15   152.75   149.35   145.86   142.46   139.32   129.04   125.67   122.35   
 119.96   117.01   114.24   111.36   108.45   106.30   103.75   101.51   98.84    96.20    
 94.73    93.26    92.15    89.08    87.95    88.21    88.56    87.79    83.34    80.74    
 78.10    43.70    44.26    47.68    52.10    57.03    62.12    66.98    71.40    75.20    
 78.35    80.96    82.94    84.45    85.93    87.86    90.78    95.59    102.07   110.32   
 122.94   
229073.89 226408.34 222204.20 216962.10 209856.64 199660.57 185925.85 168859.60 149233.96 129041.59 
 109772.63 94310.88 82818.03 73831.45 66439.92 60848.98 56384.21 52216.47 48415.79 44585.12 
 40665.17 36393.94 31490.74 27425.23 23359.72 19315.65 17108.71 15752.39 14879.47 14251.05 
 13731.41 13296.41 12874.32 12459.69 12065.23 11572.62 11018.43 10445.37 9904.02  9398.83  
 8869.98  8403.41  7949.91  7525.46  7152.69  6772.91  6412.49  6096.68  5789.60  5510.03  
 5251.18  5016.31  4808.71  4635.22  4462.28  4310.72  4169.99  4028.50  3890.86  3773.86  
 3639.00  3486.09  3330.51  3155.00  2985.87  2809.11  2637.12  2465.13  2292.06  2135.01  
 1981.78  1831.14  1683.26  1542.40  1404.52  1280.45  1167.54  1062.79  961.63   869.51   
 789.51   716.50   649.86   589.47   539.56   496.76   459.94   428.32   400.67   379.65   
 360.85   343.72   326.01   309.18   294.57   281.40   269.25   259.39   250.66   243.44   
 236.22   229.02   223.66   218.59   213.82   209.22   204.72   200.21   195.94   191.90   
 187.97   184.22   180.72   177.23   173.92   170.87   167.76   164.66   161.70   158.48   
 154.99   151.74   148.57   145.74   142.71   140.00   137.53   135.40   132.65   130.25   
 127.89   125.75   122.97   120.76   118.56   116.25   114.32   112.17   110.09   108.18   
 105.30   101.41   97.67    93.24    89.92    87.79    86.63    86.39    85.60    86.93    
 85.72    81.89    80.07    79.15    77.66    77.14    74.65    73.87    69.66    41.98    
 42.54    45.58    49.40    54.19    59.38    64.54    69.38    73.99    77.96    81.48    
 84.44    86.66    88.50    90.40    92.41    94.68    98.01    102.48   108.08   114.40   
 122.94   
229073.89 226316.89 222325.07 217670.94 212152.11 205149.23 196111.32 184011.33 169093.40 151594.41 
 133543.54 117316.67 102906.88 90592.32 80948.21 72769.49 65759.25 59445.22 54214.21 49081.01 
 44790.95 40758.99 37079.09 33382.34 29852.46 26268.25 22874.60 19705.98 16681.27 14257.60 
 12511.03 11609.55 10715.83 9822.10  9316.79  8884.93  8500.44  8125.59  7815.00  7525.37  
 7239.18  6943.76  6684.09  6430.39  6179.97  5937.23  5723.59  5525.91  5340.46  5130.09  
 4935.80  4745.93  4577.84  4426.88  4282.12  4128.95  3986.58  3841.49  3689.93  3535.08  
 3374.16  3211.22  3065.12  2907.52  2757.05  2603.43  2455.83  2307.06  2154.26  2009.08  
 1861.55  1714.80  1587.78  1458.94  1336.12  1221.82  1113.78  1005.80  902.70   816.17   
 739.98   669.48   604.36   546.91   496.69   454.68   418.56   387.84   361.10   340.44   
 324.21   307.11   290.78   274.23   260.43   247.68   237.07   227.04   218.27   210.39   
 202.47   195.76   189.28   182.89   177.37   171.99   167.40   162.89   158.51   154.79   
 151.50   147.91   144.41   141.43   138.67   136.18   133.94   131.76   129.20   126.64   
 124.08   121.68   119.30   117.26   115.42   113.28   111.25   109.58   107.91   106.32   
 104.62   102.53   100.43   98.62    96.96    94.75    92.63    90.63    88.74    86.41    
 83.46    81.13    78.11    75.31    73.36    70.01    67.54    66.12    63.44    60.61    
 59.07    54.42    52.92    52.92    34.30    30.33    32.45    36.39    39.49    43.23    
 47.64    52.18    56.68    61.11    65.35    69.34    73.12    76.58    79.72    82.57    
 85.12    87.67    90.32    93.15    96.38    100.33   104.92   109.95   115.38   121.08   
 122.94   
229073.89 226820.23 223727.10 220119.61 215968.31 211463.47 206255.51 199674.51 191422.75 180397.00 
 166922.35 152557.11 138122.07 124901.13 112660.05 101059.18 89579.94 78645.84 68505.04 59642.67 
 52126.97 45741.44 40650.24 36604.30 33350.36 30614.11 28028.85 25791.72 23554.60 21317.04 
 19048.30 17025.69 14975.47 13096.47 11484.72 10050.02 8895.43  7955.42  7267.56  6777.32  
 6400.14  6095.11  5848.87  5641.10  5451.80  5295.43  5131.52  4976.27  4840.48  4716.41  
 4597.50  4473.13  4361.61  4249.50  4128.45  3990.85  3849.59  3704.98  3548.91  3375.99  
 3207.00  3030.94  2867.92  2719.65  2571.38  2423.17  2279.81  2138.22  1998.49  1863.40  
 1735.67  1607.87  1485.22  1372.62  1264.49  1160.91  1059.78  962.96   876.58   796.36   
 720.84   651.01   586.13   530.40   482.54   440.28   404.03   374.07   349.04   327.62   
 310.77   295.26   279.75   264.35   250.91   237.47   224.06   213.47   203.47   193.99   
 185.15   176.36   168.84   162.16   155.92   149.95   144.01   138.75   134.15   129.98   
 126.20   122.45   118.77   115.36   112.44   109.67   107.11   104.42   101.71   98.91    
 96.49    94.53    91.92    89.66    87.49    84.93    82.45    80.29    77.97    75.74    
 73.25    70.81    68.64    66.55    64.50    62.00    60.20    57.86    55.76    53.03    
 49.65    46.23    42.91    39.34    35.74    20.14    13.97    12.73    13.68    15.75    
 18.15    20.80    23.67    26.78    30.12    33.68    37.38    41.18    45.09    48.93    
 52.76    56.49    60.07    63.51    66.80    69.98    73.01    75.98    78.86    81.74    
 84.63    87.77    91.30    95.29    99.71    104.57   109.82   115.23   120.98   126.69   
 122.94   
229073.89 227305.28 225056.11 222332.08 219332.83 215782.06 211755.49 206528.76 199791.89 192682.16 
 184053.77 174275.16 163824.40 152254.71 139949.45 127650.46 114891.15 102177.38 88758.80 74560.19 
 61657.92 51403.41 43677.25 37879.85 33339.57 29998.93 27326.48 25024.79 22926.70 21085.62 
 19298.83 17544.43 16001.64 14353.07 12843.19 11541.77 10242.06 8942.34  7974.67  7222.89  
 6601.29  6129.21  5729.26  5415.26  5166.71  4954.33  4753.97  4611.17  4474.90  4331.39  
 4191.44  4056.40  3918.17  3782.33  3652.58  3495.39  3327.04  3148.89  2960.54  2786.28  
 2612.93  2451.78  2301.17  2168.85  2032.26  1903.31  1781.30  1665.42  1552.83  1447.54  
 1341.10  1244.36  1151.72  1059.11  972.76   894.18   820.23   750.77   686.48   626.77   
 570.88   520.21   472.33   428.90   389.90   356.56   324.45   296.71   273.57   254.87   
 238.34   225.92   213.41   200.94   189.08   178.56   169.63   160.45   151.49   142.84   
 135.28   127.65   120.02   112.39   106.68   102.24   97.59    92.24    88.05    83.52    
 79.66    76.07    72.30    68.69    65.60    61.93    58.13    54.31    50.29    46.78    
 43.19    39.68    36.12    32.48    29.03    25.29    21.24    17.27    14.56    12.30    
 10.26    5.41     3.59     3.73     4.09     4.50     4.97     5.50     6.09     6.82     
 7.65     8.58     9.62     10.79    12.13    13.61    15.25    17.03    18.98    21.11    
 23.41    25.83    28.41    31.16    34.05    37.03    40.19    43.45    46.71    50.03    
 53.28    56.58    59.79    63.00    66.15    69.36    72.58    75.90    79.27    82.78    
 86.46    90.51    94.99    99.79    104.93   110.68   116.63   122.81   128.98   135.12   
 122.94   
229073.89 228104.89 226689.63 224897.68 222780.78 220154.71 214942.23 209275.07 202719.43 195054.59 
 185300.46 176003.14 166324.02 156135.82 144376.55 130584.43 115926.21 100036.12 85431.43 72671.85 
 60669.51 50693.42 42426.53 35970.56 31029.36 26906.87 23501.53 20784.48 18719.28 16775.64 
 15013.17 13608.58 12090.99 10763.11 9437.44  8207.30  7196.81  6305.34  5543.00  5000.44  
 4569.59  4188.04  3900.59  3657.47  3402.57  3218.11  3078.47  2937.73  2821.98  2676.32  
 2509.37  2343.34  2151.58  1973.76  1794.13  1636.68  1494.55  1360.13  1232.93  1124.31  
 1015.88  907.44   811.48   721.95   644.18   568.26   496.63   431.53   373.39   319.76   
 274.00   231.95   194.62   162.90   137.65   116.44   95.27    78.77    66.93    57.78    
 50.18    42.54    36.80    34.25    32.24    30.95    17.38    4.00     2.16     2.15     
 2.18     2.09     2.06     2.05     2.09     2.09     2.15     2.22     2.31     2.38     
 2.47     2.58     2.68     2.80     2.93     3.06     3.20     3.35     3.50     3.67     
 3.85     4.02     4.21     4.39     4.59     4.79     5.01     5.23     5.47     5.72     
 5.98     6.26     6.57     6.90     7.28     7.68     8.15     8.64     9.22     9.87     
 10.59    11.40    12.30    13.29    14.44    15.78    17.31    19.01    21.02    23.33    
 26.10    29.34    33.01    36.99    41.42    46.26    51.58    57.31    63.42    69.83    
 76.52    83.27    90.02    96.87    103.69   110.24   116.47   122.55   128.37   133.86   
 138.91   143.57   147.78   151.53   154.75   157.40   159.59   161.20   162.21   162.65   
 162.46   161.61   160.14   158.15   155.74   152.67   148.88   144.60   139.83   134.65   
 122.94   
229073.89 227920.41 226208.38 224401.22 222488.74 220204.82 215594.32 210174.10 203027.41 195744.86 
 184106.13 173311.70 161943.39 147259.83 128065.23 109828.41 91619.99 77674.14 66685.98 56075.16 
 45381.94 33921.26 28779.31 23637.36 18515.15 15657.12 11718.45 9729.19  8259.61  7217.49  
 6287.49  5173.91  3949.88  3276.89  2754.22  2231.43  1696.95  1431.46  1176.36  895.39   
 691.39   546.95   454.09   373.10   301.72   246.32   191.09   157.47   133.39   110.03   
 94.18    82.86    71.77    60.68    53.67    47.62    42.56    38.55    34.95    31.82    
 29.20    27.29    25.66    24.06    22.56    20.88    18.93    16.29    16.07    16.13    
 16.13    16.11    16.21    16.35    16.41    16.40    16.27    16.19    15.89    15.37    
 14.54    13.18    11.16    8.38     5.45     1.94     1.63     1.67     1.72     1.78     
 1.84     1.91     1.99     2.08     2.18     2.28     2.39     2.51     2.64     2.78     
 2.93     3.08     3.24     3.41     3.59     3.78     3.98     4.18     4.39     4.62     
 4.85     5.09     5.33     5.57     5.84     6.11     6.38     6.66     6.95     7.26     
 7.59     7.94     8.33     8.72     9.17     9.67     10.21    10.82    11.47    12.19    
 12.99    13.87    14.89    15.97    17.20    18.59    20.22    22.06    24.15    26.55    
 29.43    32.67    36.29    40.41    45.00    50.09    55.57    61.43    67.58    74.10    
 80.75    87.58    94.27    101.03   107.76   114.28   120.59   126.53   132.30   137.66   
 142.63   147.25   151.43   155.19   158.56   161.38   163.71   165.62   166.93   167.63   
 167.65   166.91   165.57   163.48   160.81   157.39   152.75   147.41   141.54   135.12   
 122.94   
229073.89 227557.29 225581.73 223149.70 220300.44 217007.95 212538.12 201616.67 179738.29 154770.37 
 136871.70 118149.50 98694.77 85061.92 68233.45 52061.49 44391.76 37771.51 25656.17 20078.62 
 15954.50 12291.92 8634.56  4977.19  1745.79  1190.85  946.75   705.60   508.81   369.06   
 272.20   222.13   187.56   163.32   142.49   124.61   109.30   94.02    83.66    74.10    
 65.54    57.76    50.94    44.92    40.55    36.48    33.58    30.52    28.16    25.88    
 22.88    19.57    15.03    12.47    11.55    10.98    10.39    9.84     9.30     8.81     
 8.47     8.08     7.73     7.47     7.17     6.95     6.75     6.54     6.37     6.23     
 6.09     5.97     5.78     5.58     5.41     5.22     4.90     4.46     4.03     3.66     
 3.24     2.83     2.37     2.05     1.96     1.95     1.99     2.05     2.13     2.21     
 2.29     2.38     2.48     2.60     2.73     2.86     3.01     3.18     3.34     3.51     
 3.68     3.87     4.06     4.26     4.46     4.69     4.92     5.14     5.37     5.61     
 5.86     6.12     6.38     6.66     6.94     7.22     7.50     7.80     8.12     8.46     
 8.81     9.18     9.57     10.01    10.50    10.98    11.53    12.19    12.91    13.71    
 14.58    15.53    16.55    17.71    19.06    20.57    22.23    24.13    26.25    28.69    
 31.46    34.72    38.48    42.69    47.36    52.52    58.07    63.98    70.60    77.62    
 84.85    92.21    99.75    107.51   115.18   122.67   129.94   136.91   143.46   149.47   
 154.99   159.92   164.22   167.85   170.96   173.49   175.54   177.06   177.91   178.07   
 177.66   176.51   174.52   171.84   168.53   164.19   158.76   152.57   145.81   137.95   
 122.94   
229073.89 227479.21 225249.39 221570.43 216606.97 209696.88 185224.66 155205.97 137843.60 114352.60 
 93366.48 67710.40 56050.74 43261.03 30601.81 23254.10 15930.86 11185.47 6440.08  1728.31  
 1534.31  1113.02  734.14   524.02   461.62   325.69   270.78   215.87   161.11   121.43   
 102.12   87.64    76.95    68.39    61.27    55.39    50.77    45.84    41.43    37.59    
 33.75    29.80    26.32    21.32    17.65    15.95    14.92    13.93    12.96    12.11    
 11.26    10.46    9.74     8.91     8.10     7.41     6.89     6.45     6.12     5.79     
 5.42     5.10     4.83     4.60     4.39     4.18     3.97     3.72     3.56     3.43     
 3.32     3.20     3.06     2.91     2.77     2.63     2.52     2.41     2.30     2.21     
 2.10     2.03     2.03     2.04     2.08     2.13     2.20     2.27     2.33     2.40     
 2.48     2.57     2.64     2.75     2.86     2.98     3.11     3.25     3.40     3.55     
 3.71     3.87     4.06     4.24     4.45     4.65     4.86     5.09     5.32     5.55     
 5.80     6.06     6.32     6.60     6.89     7.19     7.49     7.79     8.10     8.43     
 8.78     9.15     9.54     9.93     10.37    10.86    11.39    11.98    12.63    13.35    
 14.16    15.13    16.18    17.35    18.63    20.10    21.72    23.58    25.56    27.83    
 30.46    33.33    36.63    40.34    44.58    49.42    54.70    60.62    67.01    74.08    
 81.67    89.63    97.86    106.70   115.64   124.60   133.59   142.07   150.45   158.21   
 165.30   171.54   176.96   181.60   185.21   188.03   189.91   190.63   190.58   189.68   
 188.00   185.62   182.41   178.51   174.01   168.72   162.39   155.28   147.48   138.83   
 122.94   
229073.89 227379.81 224476.16 219248.55 211692.64 182999.40 149468.29 126195.00 101894.14 73112.44 
 58239.58 39937.96 29732.75 18477.03 12102.37 6738.97  1385.58  1295.56  1050.27  802.20   
 554.14   360.94   374.55   230.78   285.64   228.80   169.45   147.28   125.27   103.26   
 93.37    76.87    58.95    57.02    49.20    42.97    37.65    35.37    24.33    21.93    
 19.05    19.31    17.34    15.81    14.53    13.90    11.88    10.63    9.86     9.40     
 8.49     7.83     7.25     6.41     5.48     4.94     4.74     4.63     4.48     4.25     
 3.99     3.77     3.59     3.37     3.20     3.02     2.88     2.76     2.63     2.52     
 2.42     2.33     2.26     2.20     2.14     2.09     2.05     2.01     1.97     1.94     
 1.92     1.92     1.92     1.96     2.01     2.06     2.13     2.20     2.28     2.36     
 2.46     2.55     2.65     2.76     2.87     3.00     3.14     3.29     3.44     3.61     
 3.79     3.99     4.18     4.39     4.61     4.84     5.07     5.31     5.56     5.82     
 6.09     6.37     6.67     6.97     7.28     7.61     7.93     8.27     8.63     8.99     
 9.36     9.75     10.15    10.58    11.02    11.48    11.96    12.45    12.99    13.57    
 14.23    14.98    15.84    16.85    17.95    19.25    20.74    22.38    24.26    26.36    
 28.64    31.24    34.16    37.56    41.41    45.70    50.61    56.14    62.45    69.40    
 77.03    85.17    93.92    103.10   112.75   122.63   132.60   142.83   153.08   162.91   
 171.96   180.18   187.38   193.59   198.27   201.50   203.36   203.90   203.23   201.37   
 198.41   194.31   189.48   183.71   177.55   170.52   162.50   154.59   145.72   135.73   
 122.94   
229073.89 227712.08 224970.83 219356.88 208872.49 171738.12 139060.82 111089.14 81213.89 57495.17 
 39929.57 28219.39 16541.45 8657.36  842.81   762.84   710.37   453.74   392.81   453.96   
 344.24   234.51   125.23   70.49    53.94    39.84    30.21    25.90    21.81    19.19    
 17.78    16.63    15.49    14.37    13.39    10.76    8.59     7.58     7.18     6.97     
 6.63     6.35     6.05     5.80     5.59     5.39     5.10     4.84     4.68     4.46     
 4.27     4.15     3.93     3.74     3.63     3.44     3.28     3.18     3.06     2.93     
 2.82     2.73     2.65     2.59     2.54     2.49     2.46     2.43     2.42     2.38     
 2.33     2.31     2.27     2.24     2.20     2.16     2.15     2.14     2.13     2.13     
 2.12     2.13     2.16     2.19     2.22     2.26     2.31     2.37     2.43     2.49     
 2.57     2.65     2.72     2.79     2.88     2.98     3.11     3.24     3.40     3.56     
 3.74     3.95     4.16     4.40     4.66     4.92     5.18     5.45     5.71     5.98     
 6.24     6.51     6.79     7.06     7.36     7.66     7.98     8.32     8.67     9.05     
 9.45     9.87     10.34    10.83    11.33    11.84    12.37    12.92    13.51    14.10    
 14.73    15.39    16.10    16.86    17.71    18.72    19.85    21.20    22.71    24.47    
 26.48    28.76    31.26    34.11    37.30    40.98    45.20    50.03    55.57    62.14    
 69.56    77.93    86.84    96.69    107.06   117.82   129.01   140.13   151.58   162.76   
 173.68   184.03   193.05   200.84   206.88   211.51   214.17   214.96   214.09   211.68   
 207.94   202.57   196.58   189.67   181.86   173.50   164.52   155.20   145.50   135.33   
 122.94   
229073.89 227947.02 225161.20 219410.07 206566.53 167719.51 137088.93 108511.67 75459.17 55526.31 
 34134.32 24721.53 14578.11 9743.04  4966.05  189.05   99.19    57.01    45.14    34.62    
 29.04    24.33    20.27    17.78    15.56    14.33    13.17    11.62    10.49    9.86     
 9.45     9.16     8.84     8.18     7.11     6.25     5.88     5.75     5.66     5.53     
 5.66     5.71     5.61     5.16     5.03     4.78     4.76     4.98     5.10     4.98     
 4.72     4.52     4.45     4.42     4.38     4.38     4.40     4.23     4.12     4.01     
 3.89     3.82     3.68     3.51     3.39     3.27     3.15     3.00     2.89     2.79     
 2.71     2.63     2.57     2.51     2.47     2.44     2.44     2.44     2.43     2.44     
 2.48     2.51     2.55     2.61     2.73     2.93     3.07     3.18     3.28     3.35     
 3.42     3.48     3.57     3.62     3.63     3.63     3.67     3.74     3.83     3.97     
 4.14     4.32     4.53     4.77     5.02     5.30     5.57     5.85     6.14     6.41     
 6.67     6.94     7.20     7.46     7.73     8.01     8.33     8.68     9.06     9.47     
 9.89     10.34    10.83    11.32    11.82    12.38    12.99    13.61    14.26    14.94    
 15.63    16.37    17.12    17.88    18.68    19.57    20.58    21.78    23.21    24.83    
 26.66    28.73    31.01    33.70    36.72    40.15    44.06    48.51    53.68    59.99    
 67.50    76.05    85.59    95.82    106.28   117.18   129.00   141.23   153.14   164.58   
 175.52   186.15   195.99   204.07   210.28   214.55   216.78   216.94   215.24   211.86   
 207.17   201.20   194.27   186.73   178.85   170.47   162.06   153.36   143.79   134.01   
 122.94   
