IESNA:LM-63-2002
[TEST] 1
[TESTLAB] AOK
[TESTDATE] 2022-05-13
[ISSUEDATE] 2022-05-13 17:13:23
[NEARFIELD] 
[LAMPPOSITION] 0,0
[OTHER] EVERFINE GO-2000A_V1 SYSTEM
[MANUFAC] AOK
[LUMCAT] A
[LUMINAIRE] AOK-400WiSF-NVY-S5-00-5070-30D-
[LAMPCAT] B
[LAMP] 5050
[BALLAST] E
[BALLASTCAT] F
[OTHER] 
[OTHER] Gamma(deg)    Fz(lm)      Ft(lm)     %Lum    %Lamp
[OTHER]   0- 10     10783.68    10783.68    20.02    20.02
[OTHER]  10- 20     16224.16    27007.83    50.14    50.14
[OTHER]  20- 30      9918.16    36926.00    68.56    68.56
[OTHER]  30- 40      6970.06    43896.06    81.50    81.50
[OTHER]  40- 50      4405.34    48301.40    89.68    89.68
[OTHER]  50- 60      2515.28    50816.68    94.35    94.35
[OTHER]  60- 70      1488.83    52305.51    97.11    97.11
[OTHER]  70- 80       709.96    53015.47    98.43    98.43
[OTHER]  80- 90       292.09    53307.55    98.97    98.97
[OTHER]  90-100       148.75    53456.31    99.25    99.25
[OTHER] 100-110       101.78    53558.09    99.44    99.44
[OTHER] 110-120        80.69    53638.78    99.59    99.59
[OTHER] 120-130        62.58    53701.36    99.70    99.70
[OTHER] 130-140        48.03    53749.38    99.79    99.79
[OTHER] 140-150        40.07    53789.45    99.87    99.87
[OTHER] 150-160        36.71    53826.16    99.93    99.93
[OTHER] 160-170        26.16    53852.33    99.98    99.98
[OTHER] 170-180         9.44    53861.77   100.00   100.00
[OTHER] 
TILT=NONE
1 53862 1 181 25 1 2 0.150 0.200 0.000
1.000 1 393.379
0.0    1.0    2.0    3.0    4.0    5.0    6.0    7.0    8.0    9.0    
 10.0   11.0   12.0   13.0   14.0   15.0   16.0   17.0   18.0   19.0   
 20.0   21.0   22.0   23.0   24.0   25.0   26.0   27.0   28.0   29.0   
 30.0   31.0   32.0   33.0   34.0   35.0   36.0   37.0   38.0   39.0   
 40.0   41.0   42.0   43.0   44.0   45.0   46.0   47.0   48.0   49.0   
 50.0   51.0   52.0   53.0   54.0   55.0   56.0   57.0   58.0   59.0   
 60.0   61.0   62.0   63.0   64.0   65.0   66.0   67.0   68.0   69.0   
 70.0   71.0   72.0   73.0   74.0   75.0   76.0   77.0   78.0   79.0   
 80.0   81.0   82.0   83.0   84.0   85.0   86.0   87.0   88.0   89.0   
 90.0   91.0   92.0   93.0   94.0   95.0   96.0   97.0   98.0   99.0   
 100.0  101.0  102.0  103.0  104.0  105.0  106.0  107.0  108.0  109.0  
 110.0  111.0  112.0  113.0  114.0  115.0  116.0  117.0  118.0  119.0  
 120.0  121.0  122.0  123.0  124.0  125.0  126.0  127.0  128.0  129.0  
 130.0  131.0  132.0  133.0  134.0  135.0  136.0  137.0  138.0  139.0  
 140.0  141.0  142.0  143.0  144.0  145.0  146.0  147.0  148.0  149.0  
 150.0  151.0  152.0  153.0  154.0  155.0  156.0  157.0  158.0  159.0  
 160.0  161.0  162.0  163.0  164.0  165.0  166.0  167.0  168.0  169.0  
 170.0  171.0  172.0  173.0  174.0  175.0  176.0  177.0  178.0  179.0  
 180.0  
0.0    15.0   30.0   45.0   60.0   75.0   90.0   105.0  120.0  135.0  
 150.0  165.0  180.0  195.0  210.0  225.0  240.0  255.0  270.0  285.0  
 300.0  315.0  330.0  345.0  360.0  
125869.58 123918.28 123624.33 123336.43 112128.50 96884.71 84656.86 73305.38 58818.30 49957.94 
 36981.54 25538.40 14548.51 520.43   220.19   66.82    51.60    37.79    23.98    19.54    
 17.02    15.33    14.03    12.36    10.83    9.69     8.91     8.44     8.37     8.41     
 8.16     6.66     5.74     5.36     5.37     5.49     5.67     5.82     5.58     5.46     
 5.28     5.21     5.07     5.00     4.76     4.62     4.67     4.70     4.56     4.28     
 4.06     4.04     3.92     3.84     3.80     3.76     3.64     3.53     3.44     3.32     
 3.23     3.19     3.15     3.09     3.00     2.92     2.84     2.79     2.71     2.64     
 2.56     2.51     2.47     2.44     2.41     2.40     2.40     2.40     2.40     2.43     
 2.47     2.51     2.57     2.66     2.84     2.98     3.09     3.18     3.26     3.36     
 3.46     3.57     3.66     3.71     3.79     3.87     3.99     4.13     4.32     4.53     
 4.80     5.06     5.36     5.68     6.04     6.42     6.81     7.21     7.62     8.06     
 8.54     9.03     9.53     10.07    10.69    11.34    12.04    12.80    13.63    14.51    
 15.44    16.41    17.48    18.61    19.82    21.08    22.46    23.94    25.48    27.11    
 28.81    30.58    32.43    34.35    36.43    38.62    40.94    43.37    45.97    48.72    
 51.66    54.99    58.78    62.77    67.13    71.77    76.65    81.85    87.48    93.34    
 99.24    105.11   111.09   116.98   122.62   127.96   133.02   137.71   142.11   146.18   
 149.89   153.22   155.94   157.84   158.87   158.95   158.19   156.39   153.70   150.31   
 146.33   141.96   137.41   132.72   127.96   123.14   118.14   112.87   107.30   100.81   
 93.38    
125869.58 123294.63 122848.71 122398.52 118713.06 99182.01 89169.53 78877.64 64384.62 56515.86 
 42297.79 31877.93 21458.06 11038.19 710.08   587.35   523.94   268.00   213.46   196.34   
 179.21   161.76   103.44   138.88   110.75   62.35    32.98    24.38    19.11    15.98    
 13.59    11.62    9.72     8.29     7.60     7.16     6.87     6.78     6.78     6.58     
 6.28     6.02     5.74     5.50     5.32     5.10     4.85     4.66     4.47     4.24     
 4.02     3.89     3.76     3.62     3.48     3.33     3.19     3.08     2.98     2.90     
 2.81     2.74     2.68     2.61     2.55     2.49     2.46     2.41     2.38     2.33     
 2.28     2.23     2.18     2.17     2.16     2.15     2.14     2.14     2.13     2.14     
 2.15     2.16     2.20     2.24     2.29     2.36     2.43     2.52     2.60     2.71     
 2.83     2.95     3.07     3.20     3.34     3.50     3.67     3.85     4.05     4.29     
 4.53     4.79     5.08     5.39     5.72     6.06     6.42     6.80     7.21     7.64     
 8.12     8.62     9.14     9.70     10.29    10.94    11.63    12.35    13.13    13.97    
 14.90    15.90    16.97    18.09    19.25    20.52    21.88    23.37    24.89    26.46    
 28.13    29.88    31.72    33.62    35.59    37.70    39.96    42.32    44.83    47.57    
 50.58    53.87    57.36    61.35    65.59    70.17    75.06    80.30    85.80    91.59    
 97.51    103.48   109.29   115.23   120.85   126.28   131.39   136.15   140.73   144.90   
 148.80   152.31   155.09   157.19   158.39   158.65   158.09   156.62   154.32   151.41   
 147.96   144.03   139.99   135.83   131.45   126.96   121.89   116.39   110.42   103.78   
 93.38    
125869.58 123331.71 122615.09 122079.85 121313.85 109631.58 94905.40 85167.97 76220.68 61195.44 
 52760.54 40805.42 31876.51 22395.04 14652.33 11123.58 7638.56  4153.53  668.51   540.44   
 349.49   219.48   232.70   165.36   146.90   149.51   128.31   106.86   85.41    64.13    
 63.28    53.15    43.19    42.67    36.76    31.49    31.19    26.25    25.12    23.44    
 23.25    22.41    20.61    18.06    17.46    15.41    14.11    12.97    12.13    10.74    
 9.25     8.53     7.06     5.98     5.44     5.17     4.95     4.60     4.22     3.87     
 3.56     3.29     3.09     2.95     2.83     2.67     2.53     2.39     2.30     2.23     
 2.16     2.12     2.09     2.06     2.04     2.01     1.99     1.97     1.95     1.93     
 1.93     1.93     1.95     2.00     2.08     2.15     2.23     2.33     2.43     2.54     
 2.67     2.81     2.96     3.12     3.30     3.48     3.67     3.87     4.09     4.31     
 4.54     4.78     5.04     5.30     5.57     5.88     6.20     6.56     6.96     7.39     
 7.83     8.31     8.80     9.35     9.93     10.56    11.24    11.97    12.76    13.60    
 14.49    15.46    16.47    17.56    18.72    19.93    21.24    22.64    24.08    25.57    
 27.13    28.77    30.51    32.36    34.33    36.38    38.56    40.97    43.57    46.34    
 49.36    52.69    56.33    60.32    64.57    69.22    74.16    79.28    84.60    90.30    
 96.17    102.04   107.81   113.38   118.74   124.23   129.53   134.51   139.19   143.60   
 147.55   150.83   153.35   155.22   156.42   156.87   156.51   155.45   153.83   151.55   
 148.80   145.67   142.44   138.98   134.91   130.39   125.14   119.82   114.32   108.50   
 93.38    
125869.58 123909.01 122232.99 121612.87 120824.16 119605.79 113217.84 98016.22 86969.94 75816.10 
 67847.16 56129.72 45021.21 40285.44 32263.86 24242.28 16260.58 12463.05 6829.01  1234.78  
 989.93   755.58   491.60   353.79   302.75   245.41   188.19   142.95   109.58   90.72    
 79.47    70.10    63.18    57.11    52.03    47.30    42.57    39.03    35.34    31.76    
 28.43    24.72    21.91    20.22    19.28    18.17    17.28    16.23    15.21    14.06    
 12.90    11.84    10.79    9.77     8.84     8.09     7.55     7.08     6.64     6.20     
 5.81     5.43     5.07     4.75     4.48     4.26     4.04     3.82     3.61     3.40     
 3.17     2.96     2.77     2.60     2.46     2.33     2.20     2.09     2.01     1.92     
 1.84     1.80     1.80     1.83     1.88     1.95     2.03     2.13     2.23     2.33     
 2.45     2.58     2.72     2.87     3.02     3.19     3.35     3.53     3.72     3.92     
 4.13     4.34     4.58     4.84     5.13     5.42     5.72     6.06     6.43     6.83     
 7.25     7.74     8.24     8.76     9.34     9.93     10.57    11.23    11.94    12.70    
 13.54    14.42    15.40    16.38    17.39    18.47    19.64    20.89    22.18    23.57    
 25.05    26.59    28.23    29.97    31.80    33.78    35.95    38.26    40.67    43.37    
 46.37    49.58    53.03    56.79    60.89    65.32    69.98    74.92    80.02    85.43    
 90.92    96.56    102.12   107.78   113.49   119.03   124.32   129.26   133.99   138.18   
 141.89   145.14   147.79   149.88   151.32   152.25   152.54   152.20   151.31   149.96   
 148.20   145.92   143.72   140.82   137.37   133.53   129.30   124.34   119.42   114.48   
 93.38    
125869.58 124511.43 122748.42 121435.91 120532.19 118320.59 115005.74 110964.74 107459.06 96437.39 
 83751.42 73323.38 65566.61 55977.45 48481.28 40611.57 31284.25 25387.50 21976.84 16110.79 
 11937.26 9471.64  7025.81  5607.85  4256.66  1462.54  1101.28  765.69   594.01   426.18   
 318.78   243.58   197.69   169.72   146.58   125.02   108.91   92.85    79.61    68.43    
 58.76    50.54    44.11    38.65    34.11    30.55    27.25    24.60    22.32    19.81    
 16.94    14.36    12.63    11.71    10.98    10.32    9.72     9.22     8.73     8.25     
 7.80     7.42     7.07     6.74     6.47     6.20     5.95     5.74     5.56     5.40     
 5.25     5.09     4.91     4.71     4.47     4.24     3.97     3.68     3.38     3.07     
 2.77     2.43     2.10     1.97     1.96     1.99     2.07     2.15     2.24     2.34     
 2.45     2.56     2.68     2.82     2.96     3.11     3.28     3.45     3.63     3.83     
 4.05     4.27     4.51     4.77     5.05     5.34     5.64     5.98     6.34     6.73     
 7.14     7.57     8.04     8.52     9.02     9.57     10.16    10.79    11.45    12.18    
 12.92    13.71    14.58    15.48    16.43    17.40    18.45    19.61    20.82    22.09    
 23.43    24.83    26.30    27.90    29.65    31.53    33.55    35.70    38.08    40.73    
 43.55    46.69    50.09    53.77    57.78    62.11    66.74    71.53    76.49    81.58    
 87.04    92.51    97.94    103.26   108.51   113.80   118.81   123.57   128.12   132.41   
 136.26   139.70   142.74   145.36   147.44   149.06   150.16   150.69   151.27   150.60   
 149.09   147.55   146.05   143.75   141.04   137.99   134.57   130.72   126.42   122.24   
 93.38    
125869.58 125261.17 124296.15 122923.72 121162.31 118044.51 114519.26 111007.91 107308.56 102276.24 
 97314.97 91897.10 84894.68 77995.07 70737.42 63358.61 56438.43 48275.37 40479.77 33391.74 
 27735.92 24428.02 21125.69 18506.24 16101.11 13879.60 12404.91 11040.08 9897.99  8124.53  
 6743.08  5822.65  5127.00  4416.98  3846.35  3058.37  2665.09  2272.09  1907.72  1478.39  
 1212.50  977.46   727.48   537.83   438.21   361.21   295.05   228.89   163.03   130.15   
 102.98   82.89    68.45    56.96    48.83    42.11    36.55    32.38    28.64    25.47    
 23.02    21.22    19.64    17.85    16.41    14.87    13.25    12.04    11.62    11.39    
 11.22    11.06    10.93    10.70    10.48    10.29    10.16    9.93     9.72     9.38     
 8.67     7.61     6.15     4.45     2.11     1.63     1.67     1.74     1.80     1.88     
 1.95     2.04     2.13     2.24     2.35     2.47     2.61     2.75     2.91     3.07     
 3.24     3.42     3.62     3.83     4.06     4.29     4.55     4.82     5.13     5.45     
 5.78     6.15     6.56     6.99     7.46     7.96     8.47     9.00     9.54     10.14    
 10.78    11.48    12.22    12.97    13.77    14.61    15.57    16.55    17.58    18.67    
 19.83    21.07    22.39    23.79    25.32    26.95    28.74    30.67    32.77    35.06    
 37.67    40.47    43.54    46.91    50.55    54.53    58.75    63.25    67.97    72.97    
 78.13    83.32    88.53    93.98    99.31    104.59   109.83   114.82   119.86   124.59   
 129.12   133.37   137.26   140.91   144.11   146.92   149.21   151.54   152.74   153.27   
 152.80   152.32   151.76   150.16   148.08   145.67   142.84   139.38   135.57   131.78   
 93.38    
125869.58 125788.26 125568.74 124993.52 124006.21 121537.99 118214.98 114611.58 110945.28 105945.81 
 100913.58 95401.08 89284.42 82777.16 75579.47 68031.95 60588.71 53937.99 47945.44 42278.70 
 37311.03 33073.75 29577.58 27073.44 25052.07 23033.81 21280.88 19601.22 18260.81 17047.65 
 15728.76 14655.46 13560.58 12655.37 11787.06 10963.43 10268.88 9601.77  8922.31  8248.01  
 7666.09  7061.78  6528.84  5971.58  5461.73  5006.48  4603.85  4220.00  3835.11  3464.94  
 3154.25  2872.26  2616.32  2360.81  2149.01  1962.58  1795.31  1643.27  1513.01  1381.25  
 1261.57  1148.46  1047.84  948.56   859.96   774.43   697.12   622.32   556.03   492.67   
 433.37   382.57   336.90   295.65   260.68   225.71   190.81   162.97   141.02   122.38   
 105.38   90.22    77.67    66.52    55.59    41.89    15.18    10.29    3.38     1.20     
 1.03     0.92     0.91     0.83     0.84     0.84     0.85     0.86     0.88     0.90     
 0.92     0.93     0.95     0.97     0.99     1.01     1.04     1.07     1.10     1.13     
 1.16     1.20     1.24     1.28     1.33     1.39     1.45     1.50     1.56     1.64     
 1.72     1.81     1.91     2.02     2.14     2.27     2.41     2.57     2.73     2.91     
 3.11     3.33     3.57     3.84     4.12     4.43     4.78     5.16     5.56     6.04     
 6.56     7.12     7.72     8.39     9.10     9.89     10.74    11.66    12.61    13.65    
 14.74    15.87    17.09    18.38    19.74    21.18    22.65    24.27    25.99    27.81    
 29.67    31.65    33.68    35.87    38.16    40.60    43.17    46.12    48.89    52.67    
 55.81    59.43    63.89    68.68    73.68    78.83    84.11    89.58    95.32    101.14   
 93.38    
125869.58 126606.52 127111.96 127147.58 126608.36 124788.24 121956.48 118576.44 114993.25 110758.69 
 106173.54 100812.63 95013.04 88646.89 81736.85 74505.24 67607.42 61156.34 55061.98 49212.53 
 43761.39 39363.65 35926.23 32933.03 30546.06 28405.91 26588.94 24989.06 23441.82 22009.89 
 20662.22 19418.29 18286.23 17198.75 16186.94 15262.99 14351.65 13539.55 12777.90 12081.82 
 11368.10 10654.21 9996.10  9359.80  8732.52  8141.08  7580.07  7017.72  6511.22  6051.01  
 5608.84  5202.92  4831.86  4494.44  4197.50  3935.45  3688.58  3464.73  3272.43  3092.84  
 2907.32  2742.71  2586.24  2431.45  2283.10  2142.84  2003.85  1872.11  1742.84  1616.01  
 1497.23  1390.17  1286.31  1191.01  1096.26  1001.52  919.92   844.22   771.57   704.82   
 642.10   584.27   529.71   479.91   438.09   399.28   364.78   335.20   309.30   287.49   
 269.36   252.04   234.20   218.00   203.07   189.88   177.35   166.26   156.17   146.18   
 137.36   129.29   121.88   114.48   108.06   102.02   96.81    91.95    87.41    83.61    
 79.83    76.36    73.42    70.32    66.98    63.83    60.93    57.82    54.93    52.00    
 49.29    46.34    43.54    41.05    38.31    35.44    32.54    29.52    26.44    23.08    
 19.33    14.88    11.10    8.34     6.42     4.97     3.77     3.44     3.61     3.97     
 4.35     4.78     5.25     5.77     6.33     6.93     7.55     8.24     8.97     9.74     
 10.55    11.40    12.29    13.25    14.25    15.29    16.42    17.63    18.91    20.27    
 21.71    23.28    24.95    26.72    28.73    30.90    33.25    35.79    38.57    42.19    
 45.29    49.16    53.15    57.71    62.80    68.21    73.97    80.11    86.43    92.85    
 93.38    
125869.58 127368.46 128536.73 129204.33 129398.01 129031.28 127835.66 125873.95 123410.63 120373.42 
 116568.06 112118.52 106755.29 100139.73 92812.34 85582.18 78204.71 70766.25 63838.42 57547.82 
 51943.23 47208.33 43341.35 40177.30 37493.24 34861.00 32593.45 30358.11 28491.25 26656.05 
 25130.62 23605.19 22081.10 20683.97 19491.18 18354.78 17268.24 16290.45 15374.51 14429.39 
 13558.23 12762.49 11992.65 11292.84 10637.51 9932.98  9321.67  8676.75  8077.82  7498.13  
 6981.18  6476.33  6008.16  5554.53  5146.93  4799.53  4481.12  4204.35  3949.92  3718.71  
 3514.56  3324.46  3134.83  2950.26  2785.21  2620.17  2455.31  2308.34  2162.79  2020.46  
 1883.87  1749.96  1615.67  1493.66  1378.59  1266.57  1160.85  1061.61  969.94   885.98   
 802.54   723.64   655.25   594.97   540.18   489.78   448.67   417.38   388.89   358.61   
 338.77   320.05   301.30   283.57   267.85   253.87   240.77   227.70   216.73   206.50   
 197.34   189.19   181.49   174.63   167.85   162.29   156.47   151.29   146.52   142.16   
 138.10   134.42   130.81   126.99   123.56   120.39   117.19   114.10   110.88   107.97   
 105.26   102.71   100.27   97.80    95.30    92.88    90.46    87.94    85.63    83.12    
 80.41    78.13    75.20    72.68    70.22    67.80    65.23    62.13    59.22    56.52    
 53.53    50.68    47.45    44.12    41.64    37.85    33.73    31.41    16.51    10.72    
 8.92     8.55     9.29     10.21    11.19    12.20    13.26    14.37    15.57    16.84    
 18.15    19.43    20.78    22.31    24.02    25.88    27.89    30.13    32.52    35.21    
 38.22    41.93    45.68    50.48    55.30    60.67    66.58    72.99    79.97    86.89    
 93.38    
125869.58 127893.49 129501.89 130936.12 132214.12 133257.61 133941.57 133726.05 132018.84 129056.27 
 125320.67 120792.57 115408.26 108952.82 101765.95 94096.74 86317.95 78533.09 70886.91 63515.67 
 57309.09 52208.09 48212.06 44797.08 41668.80 38856.53 36273.16 33936.27 31753.37 29663.16 
 27859.31 26085.93 24419.92 22917.54 21539.62 20277.88 19072.67 17899.68 16841.06 15756.65 
 14711.60 13766.05 12809.56 11928.32 11117.65 10307.60 9590.26  8965.86  8381.26  7824.36  
 7302.51  6848.61  6434.36  6051.84  5677.66  5328.49  4998.04  4695.92  4427.04  4169.29  
 3937.01  3689.88  3468.08  3267.43  3071.01  2885.48  2701.25  2525.49  2351.40  2184.57  
 2028.68  1883.33  1746.50  1610.56  1480.66  1362.48  1244.00  1137.32  1030.75  937.32   
 851.81   773.21   697.87   630.68   572.22   524.63   481.73   445.59   408.59   380.86   
 361.26   342.69   324.21   306.60   291.20   276.99   265.43   255.29   246.80   239.32   
 232.11   225.72   219.95   214.75   209.63   204.61   200.33   196.44   192.81   189.32   
 185.91   182.76   179.70   176.21   173.41   170.57   167.82   165.25   162.54   159.87   
 157.17   154.59   151.92   149.35   146.16   143.41   140.39   137.42   134.46   131.53   
 128.03   124.52   121.60   118.50   115.34   111.84   108.65   105.40   101.86   97.90    
 94.13    89.59    85.21    80.91    77.61    74.99    74.22    70.22    66.37    62.94    
 59.06    55.39    51.99    47.71    44.87    42.37    25.97    17.12    15.20    16.64    
 16.94    17.57    19.13    20.85    22.69    24.61    26.45    28.24    30.33    32.70    
 35.36    38.42    41.92    45.87    50.34    55.36    61.37    67.73    74.56    81.76    
 93.38    
125869.58 128314.96 130409.96 132714.57 135318.89 138125.55 139974.23 139942.19 138345.49 135815.58 
 132861.73 128847.93 124008.85 118054.43 110926.81 102104.56 93053.73 84423.85 76216.53 68862.08 
 62454.75 57091.12 52873.21 49334.34 46237.43 43310.08 40648.79 38037.88 35663.17 33490.45 
 31325.82 29381.62 27829.44 26205.92 24588.22 22971.19 21414.24 19959.56 18626.97 17362.36 
 16270.53 15256.64 14376.54 13511.14 12630.45 11859.66 11102.67 10392.80 9692.70  9037.56  
 8414.75  7841.67  7328.87  6853.90  6420.71  6029.02  5682.18  5355.88  5033.27  4752.13  
 4478.94  4231.41  3981.40  3726.06  3492.79  3276.27  3069.02  2863.18  2675.71  2488.19  
 2296.87  2103.75  1933.19  1773.65  1630.56  1496.84  1369.51  1249.34  1135.57  1033.41  
 939.74   850.36   769.62   699.01   639.90   587.81   541.12   498.81   456.69   428.67   
 407.12   387.07   366.34   346.40   327.64   312.82   299.56   289.12   280.11   273.16   
 267.22   262.54   258.13   254.42   251.10   248.44   246.39   244.72   242.79   240.66   
 238.52   236.40   234.69   232.75   230.61   228.39   225.58   221.64   217.48   213.22   
 208.78   204.13   199.41   194.67   190.13   185.87   181.83   178.40   174.66   170.92   
 167.19   163.78   159.67   155.82   152.02   148.16   144.13   139.93   135.99   131.53   
 126.10   120.15   114.36   107.98   103.47   98.61    95.32    91.26    87.27    82.47    
 80.59    81.72    77.95    72.84    68.97    66.52    63.24    60.73    56.33    53.99    
 32.62    19.84    20.25    21.44    22.68    24.80    27.14    29.52    31.74    33.75    
 35.94    38.38    41.20    44.54    48.56    53.21    58.39    64.59    71.66    79.14    
 93.38    
125869.58 128429.84 130936.18 133953.59 137589.81 141018.98 142805.66 142743.34 141606.23 139781.95 
 136933.45 133430.02 128632.93 121620.88 112941.33 103971.14 94979.73 86438.58 78321.48 70790.45 
 64504.46 59533.09 55595.58 52209.91 48991.34 46035.79 43478.94 41137.80 38930.37 36941.96 
 35086.31 33081.42 31205.85 29462.20 27699.89 26068.21 24465.36 23112.58 21737.73 20347.08 
 19027.51 17910.54 16827.18 15755.98 14676.98 13665.27 12689.81 11730.51 10920.07 10110.80 
 9364.07  8673.14  8071.05  7542.45  7077.17  6685.54  6368.88  6109.92  5874.74  5648.99  
 5347.73  5018.64  4763.06  4482.94  4228.66  3942.91  3646.83  3380.39  3066.79  2749.18  
 2491.84  2277.59  2095.93  1931.27  1773.60  1625.23  1490.99  1361.30  1240.89  1134.85  
 1028.94  934.15   849.62   777.71   715.67   659.65   608.56   557.74   512.29   485.47   
 461.85   438.51   414.00   391.22   368.84   351.01   334.51   321.52   311.55   303.03   
 296.69   291.57   288.07   285.49   283.22   281.34   279.69   278.72   277.15   275.28   
 273.23   271.57   270.26   268.87   267.34   265.25   262.42   259.16   255.24   250.06   
 244.92   239.94   234.45   228.48   222.93   217.31   211.55   205.97   200.53   195.38   
 190.49   185.82   181.11   176.49   171.86   167.32   156.64   149.81   145.90   142.76   
 139.19   135.06   131.13   126.17   121.20   116.28   111.89   107.41   103.17   98.81    
 93.70    87.91    83.25    83.57    82.39    76.31    72.26    71.40    69.99    68.59    
 62.13    59.57    26.51    23.76    25.56    27.65    30.21    33.00    35.69    38.19    
 39.99    42.17    44.56    47.33    50.81    55.30    60.63    67.06    74.07    81.59    
 93.38    
125869.58 128460.70 130960.06 134082.09 138022.16 141587.25 143574.98 143923.66 143066.91 141132.36 
 138209.43 134653.14 129627.12 122325.68 113915.59 105052.60 96016.32 87356.02 79068.73 71846.65 
 65687.41 60809.95 56960.71 53399.54 50126.36 47477.21 45095.36 42915.89 41123.58 39318.52 
 37442.88 35508.23 33720.05 31933.74 30317.77 28720.37 27362.36 25841.83 24289.29 22739.22 
 21387.06 20027.69 18662.32 17461.15 16225.97 15038.86 13952.48 12908.60 11933.49 11011.32 
 10159.94 9429.39  8781.23  8157.05  7599.34  7228.33  7124.26  6887.75  6680.18  6476.88  
 6125.21  5801.63  5482.40  5190.15  4940.82  4708.58  4220.19  3832.74  3395.04  3019.50  
 2749.04  2479.38  2276.08  2093.53  1924.88  1757.47  1600.40  1458.30  1330.18  1208.95  
 1101.27  1000.32  910.59   831.52   763.53   701.74   646.32   591.59   543.66   512.66   
 485.91   461.01   434.70   409.56   385.42   365.36   347.36   331.86   319.86   309.32   
 301.74   295.95   291.77   288.59   285.89   283.54   281.61   279.74   277.98   275.23   
 272.13   268.73   266.03   263.36   260.96   258.21   255.45   252.26   248.94   245.20   
 239.47   233.75   228.96   223.85   218.60   213.57   208.30   203.32   198.48   193.80   
 189.21   184.86   180.55   176.04   171.56   167.20   162.80   155.64   145.89   141.91   
 137.98   134.63   130.98   127.05   122.64   118.07   113.78   109.84   105.98   102.03   
 98.03    92.57    87.83    84.79    85.78    84.33    82.14    77.72    74.32    75.27    
 69.51    63.79    57.54    27.35    29.28    31.26    33.89    37.01    40.08    43.06    
 45.72    48.19    50.68    53.12    55.86    59.54    64.22    70.04    77.15    85.26    
 93.38    
125869.58 128178.29 130611.10 133574.56 137222.17 140230.04 142034.36 142264.48 141603.48 139607.97 
 136364.52 132636.21 127509.35 120185.80 111441.43 102298.61 93272.35 84837.72 76953.39 69737.28 
 63545.77 58591.47 54801.25 51404.21 48196.10 45515.11 43063.62 40896.53 39041.18 37386.17 
 35721.25 34040.42 32264.69 30614.48 28996.98 27288.87 25710.42 24366.22 22869.77 21403.58 
 20052.10 18776.71 17513.88 16385.38 15210.71 14142.26 13130.03 12185.43 11305.61 10426.29 
 9660.32  8941.48  8334.68  7775.77  7260.51  6862.93  6605.31  6388.13  6112.80  5780.50  
 5459.38  5137.62  4869.76  4576.84  4325.27  4068.10  3721.62  3407.56  3070.97  2787.87  
 2548.46  2349.48  2165.73  1988.80  1827.92  1674.80  1529.36  1391.99  1270.71  1167.27  
 1063.98  960.68   875.98   800.34   735.11   678.29   625.73   574.64   530.92   501.71   
 475.55   451.11   424.60   402.14   378.02   358.78   341.28   326.86   315.10   304.65   
 296.42   289.32   283.79   278.70   273.74   269.04   264.66   260.70   256.05   251.23   
 246.40   242.31   238.35   234.53   230.83   227.26   223.57   219.67   215.58   210.72   
 206.37   202.28   198.37   194.20   190.32   186.37   182.54   178.67   174.77   171.16   
 167.51   163.68   159.64   155.73   152.07   148.46   140.80   134.92   131.59   128.27   
 124.95   121.62   118.26   114.69   111.27   108.45   105.30   102.29   99.00    95.14    
 90.91    87.97    84.87    85.25    82.95    78.91    77.19    74.58    73.65    59.04    
 65.00    64.09    31.44    31.67    33.60    36.23    39.53    43.00    46.33    49.41    
 52.23    55.10    57.81    60.40    63.15    66.51    70.69    76.02    82.23    89.16    
 93.38    
125869.58 127839.34 129718.64 131949.77 134641.38 137332.18 138987.11 139567.09 138484.46 136360.56 
 132924.47 128369.53 123066.46 116362.12 108309.63 99421.81 90771.35 82235.52 74380.14 67163.32 
 60898.76 55624.60 51594.74 48238.66 45266.92 42510.25 39968.10 37598.32 35490.00 33533.07 
 31732.58 30144.29 28589.85 27250.30 25749.43 24261.73 22773.76 21263.15 19868.74 18552.31 
 17414.79 16333.51 15281.45 14326.54 13416.85 12588.59 11759.22 10973.47 10231.74 9501.39  
 8822.86  8208.30  7670.55  7155.31  6677.60  6255.85  5875.57  5526.16  5189.53  4922.32  
 4653.37  4373.74  4100.40  3820.64  3568.96  3347.14  3141.67  2934.23  2728.71  2523.19  
 2318.05  2144.92  1979.61  1817.32  1670.32  1530.90  1395.84  1273.13  1159.27  1056.67  
 958.11   867.32   786.62   717.04   657.32   603.76   555.69   510.97   470.10   443.20   
 420.66   399.61   376.99   355.89   336.19   319.34   303.52   290.59   278.99   269.45   
 261.07   253.60   246.95   239.60   232.28   226.98   221.60   216.30   211.05   206.44   
 202.07   197.92   194.07   190.52   186.85   183.47   179.89   176.04   172.70   169.13   
 165.55   161.85   158.33   154.91   151.49   148.13   145.18   142.71   139.60   136.40   
 133.46   130.66   127.68   124.67   122.25   119.61   116.96   114.18   111.72   109.21   
 106.00   101.82   97.85    93.34    89.50    86.56    84.46    82.22    81.04    79.93    
 78.84    77.21    73.45    70.75    68.69    66.76    65.56    62.90    54.02    51.57    
 31.27    31.10    33.03    35.33    38.32    41.87    45.49    49.20    52.85    56.38    
 59.66    62.71    65.56    68.46    71.73    75.41    79.63    84.45    89.97    95.93    
 93.38    
125869.58 127325.16 128568.04 129852.54 131349.89 132954.70 133975.62 133674.99 132159.56 129324.24 
 125608.33 121019.78 115118.14 107935.05 100552.78 92728.24 84741.06 76754.53 69200.04 61995.43 
 55851.10 51048.88 47150.98 43831.01 40964.25 38325.42 35916.60 33771.24 31716.23 29775.99 
 27997.92 26284.25 24748.01 23327.36 21990.29 20767.98 19664.62 18601.56 17549.55 16467.27 
 15412.18 14420.21 13507.41 12559.98 11690.84 10937.48 10185.10 9545.41  8891.07  8294.46  
 7760.40  7263.96  6804.92  6366.54  5949.47  5563.27  5213.62  4887.00  4589.68  4303.37  
 4036.69  3779.64  3546.25  3332.59  3128.69  2930.45  2749.79  2564.91  2379.19  2212.20  
 2057.33  1904.96  1759.38  1619.82  1486.30  1366.77  1250.56  1148.52  1046.61  944.70   
 859.25   777.94   703.40   637.81   580.34   531.69   488.53   452.03   415.33   389.48   
 369.91   349.32   329.23   309.19   292.33   277.17   263.30   251.34   240.85   231.41   
 222.19   214.34   206.76   199.53   192.95   186.80   181.14   176.03   171.14   166.59   
 162.69   158.62   154.42   150.66   147.53   144.29   141.39   138.37   135.51   132.52   
 130.01   126.99   123.96   121.32   118.86   116.37   113.98   111.66   109.50   107.48   
 105.27   102.62   100.28   98.04    95.93    93.81    91.47    89.06    86.48    83.89    
 80.75    77.64    74.84    72.39    69.71    67.70    64.97    61.18    58.57    55.37    
 53.03    51.01    49.19    46.51    46.19    30.35    25.32    27.05    28.76    30.52    
 32.57    35.62    38.84    42.15    45.52    48.94    52.41    55.90    59.64    63.37    
 66.64    69.55    72.51    75.77    79.44    83.60    88.13    93.03    98.13    103.54   
 93.38    
125869.58 126773.16 127333.32 127672.53 127877.75 128009.46 127888.99 127001.18 125163.71 122175.29 
 117997.67 112987.20 107100.67 100334.01 93018.25 85647.35 78250.18 70949.22 63839.91 57645.04 
 52000.41 47329.07 43463.26 40124.83 37330.83 34856.22 32559.64 30415.04 28529.63 26714.74 
 25212.57 23710.40 22209.50 20830.39 19671.59 18564.40 17557.74 16521.27 15582.55 14588.40 
 13796.18 12970.47 12181.87 11467.82 10774.02 10114.67 9479.44  8869.47  8246.94  7703.22  
 7143.97  6645.73  6171.15  5715.84  5280.51  4896.15  4557.16  4260.56  3988.17  3748.65  
 3535.42  3329.53  3139.16  2952.49  2775.65  2622.29  2469.02  2325.03  2176.34  2039.24  
 1899.05  1764.55  1630.61  1504.97  1386.46  1274.48  1165.52  1067.73  978.18   891.02   
 806.61   727.50   659.38   598.44   544.30   494.83   452.61   419.88   392.24   364.60   
 345.02   326.24   306.97   288.69   272.11   257.51   244.45   231.40   218.37   207.20   
 196.99   187.47   179.16   171.53   164.71   158.16   151.43   145.78   140.78   136.11   
 131.81   127.98   123.90   120.22   116.85   113.68   110.84   107.70   104.76   101.67   
 98.93    96.00    93.16    90.73    88.02    85.37    82.87    80.52    77.83    75.35    
 72.35    69.41    66.91    64.41    62.45    59.70    57.25    54.83    52.56    50.15    
 47.42    44.54    41.76    38.83    36.19    33.62    28.27    16.01    13.67    13.71    
 15.20    17.01    19.00    21.14    23.43    25.86    28.42    31.19    34.07    37.05    
 40.12    43.24    46.39    49.66    52.97    56.47    60.02    63.60    66.91    69.93    
 72.92    76.55    80.40    84.36    88.58    93.07    97.79    102.52   107.55   112.41   
 93.38    
125869.58 126094.31 125939.08 125474.58 124787.78 123776.07 121959.96 119269.83 115971.63 112177.68 
 107826.29 102767.80 96792.93 90257.04 83237.72 75770.90 68798.90 62093.67 55826.05 50087.88 
 44989.82 40634.85 37051.37 34016.00 31491.45 29340.05 27517.47 25729.77 24039.30 22545.73 
 21148.13 19920.00 18764.02 17659.66 16614.60 15695.62 14730.57 13918.26 13085.85 12329.36 
 11621.56 10914.23 10206.89 9555.38  8919.09  8304.01  7761.11  7238.31  6726.41  6229.72  
 5765.07  5353.81  4960.16  4619.52  4296.08  3995.84  3730.81  3498.30  3284.75  3083.70  
 2898.67  2722.60  2560.01  2406.30  2251.09  2102.62  1965.74  1835.72  1705.76  1584.55  
 1469.38  1363.42  1258.21  1165.22  1072.35  979.48   899.60   825.27   754.81   687.75   
 626.47   568.75   516.41   466.99   424.38   386.12   352.74   324.45   298.86   278.39   
 260.36   245.18   229.29   214.34   200.73   187.93   177.50   166.62   156.00   146.10   
 136.98   129.63   121.08   112.53   106.35   101.02   95.54    90.08    85.56    81.67    
 77.53    74.05    70.16    66.78    63.58    59.94    56.70    53.77    50.75    47.73    
 44.40    41.37    38.51    35.60    32.90    30.00    27.08    24.01    20.60    16.81    
 13.22    9.36     7.56     6.29     5.73     5.95     6.48     7.02     7.66     8.37     
 9.15     9.99     10.92    11.94    13.08    14.29    15.61    17.06    18.62    20.33    
 22.16    24.08    26.12    28.38    30.79    33.31    35.93    38.75    41.71    44.72    
 47.81    51.06    54.34    57.69    61.12    64.60    68.19    71.78    75.36    78.98    
 82.72    86.68    90.78    95.04    99.43    104.10   108.88   113.64   118.31   122.99   
 93.38    
125869.58 125617.91 125169.17 124524.90 123621.86 121651.18 118600.57 115067.47 111638.91 106890.87 
 101677.50 95969.74 89680.31 82989.79 75651.50 67962.80 60523.76 53855.06 47846.33 42129.51 
 37196.78 32995.06 29622.26 27107.16 24929.13 22837.61 21070.73 19430.20 18137.07 16718.34 
 15416.22 14285.08 13191.46 12232.37 11429.34 10628.07 9826.79  9113.59  8435.60  7869.93  
 7240.60  6686.75  6159.42  5622.81  5169.65  4761.45  4372.55  3982.66  3639.98  3260.57  
 2960.47  2671.55  2421.92  2188.75  1990.15  1814.75  1652.82  1515.03  1377.51  1248.80  
 1143.40  1038.24  933.09   842.55   752.62   673.37   595.32   521.98   456.91   399.70   
 347.17   297.85   256.21   217.59   184.30   156.41   131.08   110.93   90.85    74.83    
 62.06    52.19    43.17    34.88    27.51    20.80    2.67     2.57     2.20     2.11     
 2.07     2.07     2.11     2.11     2.10     2.16     2.24     2.34     2.44     2.54     
 2.65     2.76     2.89     3.02     3.16     3.30     3.46     3.63     3.81     4.01     
 4.22     4.45     4.69     4.95     5.24     5.53     5.86     6.21     6.60     7.02     
 7.47     7.92     8.41     8.93     9.49     10.08    10.74    11.45    12.21    13.01    
 13.87    14.77    15.75    16.79    17.96    19.25    20.60    22.07    23.69    25.50    
 27.55    29.85    32.48    35.32    38.38    41.71    45.32    49.25    53.56    58.06    
 62.72    67.49    72.37    77.45    82.50    87.48    92.45    97.38    102.23   106.93   
 111.37   115.55   119.45   123.06   126.19   128.88   131.17   132.96   134.17   134.76   
 134.67   134.00   132.86   131.20   129.07   126.37   123.18   119.62   115.62   111.16   
 93.38    
125869.58 124950.00 124458.92 124025.92 123434.83 122012.86 118998.12 115048.16 111756.98 106478.79 
 100871.97 95319.01 88100.18 77963.70 67727.76 57462.61 48769.04 42112.18 36448.06 31108.61 
 26499.95 21904.82 19020.89 16837.62 14766.54 12154.73 9993.89  8707.68  7574.76  6726.23  
 5824.45  4606.54  3819.85  3462.27  2977.67  2493.07  2010.17  1718.13  1453.74  1009.65  
 737.86   608.40   492.25   389.92   321.30   252.69   184.35   148.60   121.27   98.76    
 83.79    72.43    62.18    52.78    46.08    40.80    36.48    33.05    29.83    27.16    
 24.77    23.01    21.27    19.42    17.41    15.01    14.39    14.21    13.96    13.78    
 13.59    13.58    13.59    13.54    13.44    13.37    13.26    13.14    12.92    12.33    
 11.38    9.88     7.64     5.22     2.30     1.69     1.74     1.80     1.86     1.94     
 2.02     2.12     2.22     2.33     2.45     2.57     2.71     2.85     3.01     3.16     
 3.33     3.50     3.69     3.89     4.11     4.32     4.56     4.82     5.10     5.39     
 5.69     6.04     6.41     6.80     7.23     7.71     8.19     8.70     9.22     9.77     
 10.38    11.02    11.71    12.41    13.15    13.92    14.75    15.66    16.63    17.63    
 18.68    19.80    21.02    22.29    23.65    25.15    26.80    28.58    30.46    32.59    
 34.98    37.55    40.40    43.51    46.90    50.63    54.61    58.87    63.34    68.06    
 72.94    77.94    82.85    87.96    92.98    97.88    102.74   107.33   111.88   116.13   
 120.10   123.75   127.03   130.04   132.64   134.68   136.18   137.25   137.64   137.45   
 136.61   135.15   133.14   130.57   127.54   123.92   119.71   115.18   110.19   104.83   
 93.38    
125869.58 124830.65 124601.53 124404.95 124069.81 123184.26 120106.66 109505.42 96424.00 85736.84 
 77652.99 68196.77 59933.13 52245.81 41515.90 33894.15 29252.91 22354.16 16387.95 13616.33 
 10994.50 8373.99  5753.49  2189.94  1111.29  866.78   630.94   465.40   342.81   253.83   
 202.95   173.87   153.87   135.83   119.44   103.07   90.70    80.29    70.58    62.31    
 55.03    47.71    42.18    37.43    33.38    29.90    26.64    23.65    20.59    16.49    
 14.43    13.37    12.57    11.82    11.08    10.35    9.54     8.98     8.47     8.09     
 7.67     7.30     7.00     6.67     6.47     6.27     6.06     5.84     5.67     5.53     
 5.39     5.23     5.03     4.85     4.69     4.44     4.12     3.77     3.46     3.13     
 2.80     2.40     2.12     2.03     2.03     2.07     2.16     2.23     2.32     2.42     
 2.53     2.65     2.77     2.91     3.06     3.23     3.40     3.58     3.78     3.99     
 4.20     4.42     4.66     4.92     5.19     5.47     5.76     6.09     6.44     6.82     
 7.21     7.63     8.09     8.56     9.05     9.56     10.12    10.73    11.36    12.04    
 12.75    13.51    14.32    15.18    16.06    16.99    17.97    19.04    20.17    21.37    
 22.61    23.94    25.41    26.94    28.56    30.30    32.23    34.37    36.67    39.20    
 41.95    44.90    48.13    51.74    55.70    59.89    64.33    68.92    73.63    78.63    
 83.91    89.20    94.44    99.53    104.45   109.11   113.78   118.31   122.48   126.26   
 129.69   132.67   135.33   137.42   139.02   140.23   141.01   141.06   140.64   139.67   
 138.13   135.88   133.28   130.10   126.45   122.06   117.23   112.05   106.37   100.19   
 93.38    
125869.58 124502.82 124319.69 124246.12 123947.98 117342.73 103128.52 93668.68 82052.35 72943.61 
 59351.67 49874.88 43896.61 32479.70 25447.37 18438.91 13993.95 7553.06  1173.75  960.21   
 691.10   484.44   368.80   337.15   271.89   206.79   160.77   120.62   94.34    81.09    
 71.86    64.86    59.01    54.36    49.81    45.90    41.48    38.11    34.11    29.76    
 25.46    23.16    21.91    20.57    19.56    18.45    17.31    15.88    14.69    13.35    
 12.17    11.18    10.06    9.02     8.06     7.37     6.87     6.50     6.11     5.68     
 5.32     5.00     4.71     4.44     4.19     3.95     3.67     3.49     3.35     3.22     
 3.10     2.96     2.83     2.71     2.60     2.51     2.42     2.33     2.26     2.18     
 2.16     2.16     2.19     2.24     2.31     2.39     2.48     2.55     2.64     2.72     
 2.82     2.93     3.03     3.15     3.29     3.43     3.59     3.76     3.94     4.14     
 4.35     4.56     4.80     5.05     5.31     5.59     5.89     6.21     6.57     6.95     
 7.35     7.79     8.29     8.79     9.34     9.92     10.53    11.18    11.85    12.59    
 13.38    14.23    15.14    16.10    17.10    18.14    19.28    20.50    21.78    23.13    
 24.59    26.14    27.79    29.53    31.38    33.38    35.55    37.88    40.35    43.06    
 46.07    49.28    52.77    56.55    60.61    64.96    69.51    74.32    79.30    84.48    
 89.83    95.19    100.51   105.94   111.24   116.33   121.21   125.65   129.83   133.54   
 136.76   139.48   141.59   143.08   144.04   144.43   144.00   143.13   141.74   140.25   
 137.74   134.69   131.36   127.50   123.22   118.55   113.42   107.97   101.98   95.73    
 93.38    
125869.58 124554.10 124373.55 124280.53 119054.10 102049.85 92544.59 81084.77 70027.20 57564.51 
 49511.22 35595.94 27528.23 19998.50 10526.51 1033.74  811.81   684.19   554.05   378.67   
 255.35   232.78   185.22   182.05   149.90   131.07   109.40   87.70    82.94    72.68    
 62.23    54.70    43.14    43.94    36.88    31.23    34.31    27.26    26.24    24.59    
 25.75    22.64    20.02    18.19    18.49    14.85    14.69    13.12    11.96    10.86    
 10.03    9.11     7.66     6.28     5.61     5.35     5.17     4.90     4.59     4.28     
 4.01     3.77     3.52     3.31     3.10     2.93     2.79     2.65     2.53     2.41     
 2.33     2.25     2.19     2.15     2.10     2.07     2.05     2.02     2.01     2.00     
 2.01     2.02     2.08     2.14     2.22     2.30     2.38     2.48     2.57     2.69     
 2.80     2.92     3.04     3.17     3.31     3.47     3.63     3.82     4.03     4.24     
 4.48     4.73     5.00     5.29     5.58     5.91     6.25     6.62     7.01     7.44     
 7.88     8.36     8.86     9.39     9.96     10.59    11.26    11.95    12.70    13.52    
 14.36    15.26    16.24    17.26    18.37    19.53    20.81    22.17    23.61    25.09    
 26.65    28.32    30.09    32.01    34.02    36.14    38.44    40.93    43.60    46.46    
 49.58    52.97    56.71    60.73    64.99    69.61    74.52    79.59    84.81    90.31    
 95.96    101.50   106.97   112.23   117.29   122.42   127.36   131.96   136.26   140.16   
 143.56   146.29   148.23   149.54   150.08   149.81   148.72   147.01   144.69   141.71   
 138.19   134.35   130.24   125.74   121.26   116.27   110.94   105.42   99.57    93.29    
 93.38    
125869.58 123989.62 123793.91 123539.10 114917.75 97265.13 87169.02 76933.29 60753.16 54259.58 
 38131.35 28740.21 19349.08 9957.93  650.14   609.95   385.27   246.30   316.55   258.29   
 200.02   142.03   118.55   104.99   64.91    38.38    26.04    22.63    19.63    17.69    
 16.06    13.96    10.87    9.67     9.01     8.39     7.96     7.42     7.02     6.65     
 6.36     6.14     5.93     5.69     5.48     5.15     4.92     4.74     4.46     4.23     
 4.07     3.87     3.67     3.52     3.36     3.22     3.05     2.92     2.82     2.73     
 2.64     2.54     2.48     2.43     2.38     2.35     2.29     2.27     2.23     2.19     
 2.16     2.14     2.12     2.09     2.06     2.06     2.06     2.06     2.06     2.08     
 2.10     2.14     2.18     2.23     2.28     2.34     2.42     2.49     2.57     2.66     
 2.77     2.86     2.95     3.07     3.21     3.36     3.51     3.71     3.92     4.15     
 4.40     4.67     4.97     5.28     5.61     5.97     6.34     6.72     7.13     7.57     
 8.05     8.55     9.07     9.61     10.20    10.85    11.53    12.24    12.98    13.79    
 14.67    15.65    16.70    17.76    18.88    20.08    21.39    22.82    24.30    25.87    
 27.51    29.25    31.11    33.04    35.10    37.24    39.55    42.01    44.54    47.36    
 50.47    53.82    57.43    61.44    65.72    70.38    75.27    80.50    85.92    91.65    
 97.46    103.31   109.06   114.89   120.46   125.74   130.80   135.41   139.89   143.98   
 147.78   151.09   153.63   155.43   156.34   156.42   155.58   153.82   151.20   147.96   
 143.99   139.74   135.29   130.39   125.10   119.86   114.29   108.56   102.49   96.03    
 93.38    
125869.58 123918.28 123624.33 123336.43 112128.50 96884.71 84656.86 73305.38 58818.30 49957.94 
 36981.54 25538.40 14548.51 520.43   220.19   66.82    51.60    37.79    23.98    19.54    
 17.02    15.33    14.03    12.36    10.83    9.69     8.91     8.44     8.37     8.41     
 8.16     6.66     5.74     5.36     5.37     5.49     5.67     5.82     5.58     5.46     
 5.28     5.21     5.07     5.00     4.76     4.62     4.67     4.70     4.56     4.28     
 4.06     4.04     3.92     3.84     3.80     3.76     3.64     3.53     3.44     3.32     
 3.23     3.19     3.15     3.09     3.00     2.92     2.84     2.79     2.71     2.64     
 2.56     2.51     2.47     2.44     2.41     2.40     2.40     2.40     2.40     2.43     
 2.47     2.51     2.57     2.66     2.84     2.98     3.09     3.18     3.26     3.36     
 3.46     3.57     3.66     3.71     3.79     3.87     3.99     4.13     4.32     4.53     
 4.80     5.06     5.36     5.68     6.04     6.42     6.81     7.21     7.62     8.06     
 8.54     9.03     9.53     10.07    10.69    11.34    12.04    12.80    13.63    14.51    
 15.44    16.41    17.48    18.61    19.82    21.08    22.46    23.94    25.48    27.11    
 28.81    30.58    32.43    34.35    36.43    38.62    40.94    43.37    45.97    48.72    
 51.66    54.99    58.78    62.77    67.13    71.77    76.65    81.85    87.48    93.34    
 99.24    105.11   111.09   116.98   122.62   127.96   133.02   137.71   142.11   146.18   
 149.89   153.22   155.94   157.84   158.87   158.95   158.19   156.39   153.70   150.31   
 146.33   141.96   137.41   132.72   127.96   123.14   118.14   112.87   107.30   100.81   
 93.38    
