IESNA:LM-63-2002
[TEST] 1
[TESTLAB] AOK
[TESTDATE] 2022-05-17
[ISSUEDATE] 2022-05-17 14:28:25
[NEARFIELD] 
[LAMPPOSITION] 0,0
[OTHER] EVERFINE GO-2000A_V1 SYSTEM
[MANUFAC] AOK
[LUMCAT] A
[LUMINAIRE] AOK-800WiSF-NV-S5-00-5070-3585D-P
[LAMPCAT] B
[LAMP] 5050
[BALLAST] E
[BALLASTCAT] F
[OTHER] 
[OTHER] Gamma(deg)    Fz(lm)      Ft(lm)     %Lum    %Lamp
[OTHER]   0- 10      8239.65     8239.65     7.56     7.56
[OTHER]  10- 20     18747.47    26987.12    24.77    24.77
[OTHER]  20- 30     21479.06    48466.18    44.49    44.49
[OTHER]  30- 40     20442.02    68908.20    63.26    63.26
[OTHER]  40- 50     16589.21    85497.41    78.49    78.49
[OTHER]  50- 60     11763.19    97260.59    89.29    89.29
[OTHER]  60- 70      6709.32   103969.91    95.44    95.44
[OTHER]  70- 80      2995.41   106965.31    98.19    98.19
[OTHER]  80- 90      1044.67   108009.99    99.15    99.15
[OTHER]  90-100       367.49   108377.48    99.49    99.49
[OTHER] 100-110       160.77   108538.25    99.64    99.64
[OTHER] 110-120       109.36   108647.61    99.74    99.74
[OTHER] 120-130        84.54   108732.15    99.82    99.82
[OTHER] 130-140        67.23   108799.38    99.88    99.88
[OTHER] 140-150        53.01   108852.39    99.93    99.93
[OTHER] 150-160        40.00   108892.39    99.96    99.96
[OTHER] 160-170        29.15   108921.54    99.99    99.99
[OTHER] 170-180        10.62   108932.16   100.00   100.00
[OTHER] 
TILT=NONE
1 1.0893e+005 1 181 25 1 2 0.150 0.200 0.000
1.000 1 799.908
0.0    1.0    2.0    3.0    4.0    5.0    6.0    7.0    8.0    9.0    
 10.0   11.0   12.0   13.0   14.0   15.0   16.0   17.0   18.0   19.0   
 20.0   21.0   22.0   23.0   24.0   25.0   26.0   27.0   28.0   29.0   
 30.0   31.0   32.0   33.0   34.0   35.0   36.0   37.0   38.0   39.0   
 40.0   41.0   42.0   43.0   44.0   45.0   46.0   47.0   48.0   49.0   
 50.0   51.0   52.0   53.0   54.0   55.0   56.0   57.0   58.0   59.0   
 60.0   61.0   62.0   63.0   64.0   65.0   66.0   67.0   68.0   69.0   
 70.0   71.0   72.0   73.0   74.0   75.0   76.0   77.0   78.0   79.0   
 80.0   81.0   82.0   83.0   84.0   85.0   86.0   87.0   88.0   89.0   
 90.0   91.0   92.0   93.0   94.0   95.0   96.0   97.0   98.0   99.0   
 100.0  101.0  102.0  103.0  104.0  105.0  106.0  107.0  108.0  109.0  
 110.0  111.0  112.0  113.0  114.0  115.0  116.0  117.0  118.0  119.0  
 120.0  121.0  122.0  123.0  124.0  125.0  126.0  127.0  128.0  129.0  
 130.0  131.0  132.0  133.0  134.0  135.0  136.0  137.0  138.0  139.0  
 140.0  141.0  142.0  143.0  144.0  145.0  146.0  147.0  148.0  149.0  
 150.0  151.0  152.0  153.0  154.0  155.0  156.0  157.0  158.0  159.0  
 160.0  161.0  162.0  163.0  164.0  165.0  166.0  167.0  168.0  169.0  
 170.0  171.0  172.0  173.0  174.0  175.0  176.0  177.0  178.0  179.0  
 180.0  
0.0    15.0   30.0   45.0   60.0   75.0   90.0   105.0  120.0  135.0  
 150.0  165.0  180.0  195.0  210.0  225.0  240.0  255.0  270.0  285.0  
 300.0  315.0  330.0  345.0  360.0  
89898.03 87623.40 86420.60 81152.79 74440.23 68955.13 60580.05 54351.33 47028.17 40036.23 
 31823.19 27542.11 25190.44 23113.79 21385.21 19815.15 15253.15 12779.23 10081.03 7379.69  
 5064.04  3492.98  1827.29  1369.50  925.30   481.09   36.89    22.20    17.64    14.79    
 12.99    11.58    10.42    9.44     8.83     8.33     7.84     7.40     6.96     6.60     
 6.30     6.05     5.85     5.73     5.57     5.49     5.34     5.24     5.12     4.99     
 4.79     4.62     4.56     4.53     4.50     4.38     4.21     4.02     3.89     3.80     
 3.72     3.68     3.65     3.62     3.59     3.58     3.57     3.57     3.56     3.55     
 3.55     3.55     3.55     3.55     3.55     3.55     3.55     3.60     3.66     3.73     
 3.83     3.94     4.07     4.20     4.34     4.51     4.70     4.92     5.16     5.45     
 5.75     6.07     6.42     6.80     7.21     7.64     8.13     8.62     9.17     9.78     
 10.46    11.17    11.92    12.72    13.58    14.49    15.41    16.38    17.41    18.49    
 19.62    20.81    22.05    23.31    24.61    25.98    27.38    28.80    30.30    31.94    
 33.66    35.43    37.37    39.34    41.42    43.55    45.87    48.25    50.70    53.21    
 55.80    58.40    61.11    63.89    66.67    69.48    72.33    75.29    78.32    81.39    
 84.60    87.99    91.55    95.21    99.01    102.99   107.10   111.27   115.55   120.04   
 124.70   129.30   133.69   137.95   142.33   146.42   150.06   153.21   155.95   158.44   
 160.50   162.28   163.67   164.49   164.62   164.13   163.00   161.16   158.78   156.02   
 152.66   148.71   144.63   140.39   136.03   130.90   125.56   119.94   114.36   108.58   
 101.65   
89898.03 86762.09 85537.92 84015.91 74752.65 69722.94 63992.28 56702.45 50165.98 43553.41 
 37508.21 29331.32 26737.38 24143.44 21558.14 19933.47 18287.79 14027.85 11650.78 9139.00  
 6867.69  4726.44  3329.85  1933.25  547.41   400.32   253.23   107.37   92.03    71.70    
 50.46    46.08    38.11    33.25    34.11    29.70    21.71    17.67    14.76    12.99    
 11.99    11.19    10.35    9.65     9.08     8.47     7.87     7.19     6.88     6.66     
 6.41     6.24     6.07     5.86     5.69     5.55     5.41     5.23     5.06     4.90     
 4.84     4.84     4.83     4.77     4.66     4.52     4.38     4.26     4.14     4.03     
 3.94     3.85     3.79     3.76     3.75     3.75     3.75     3.76     3.79     3.84     
 3.91     4.00     4.13     4.27     4.44     4.63     4.83     5.06     5.32     5.60     
 5.91     6.25     6.61     7.01     7.45     7.95     8.46     9.01     9.61     10.28    
 11.00    11.73    12.50    13.35    14.20    15.17    16.15    17.19    18.23    19.34    
 20.50    21.73    22.99    24.24    25.56    26.99    28.47    30.05    31.68    33.34    
 35.11    37.06    39.05    41.11    43.18    45.34    47.55    49.89    52.28    54.68    
 57.11    59.64    62.18    64.71    67.24    69.88    72.65    75.43    78.27    81.28    
 84.53    87.89    91.37    94.99    98.68    102.59   106.55   110.64   114.85   119.22   
 123.67   128.05   132.26   136.51   140.43   144.02   147.30   150.29   153.09   155.55   
 157.62   159.28   160.39   160.87   160.04   159.11   157.75   155.77   153.57   151.03   
 148.11   145.07   141.72   138.09   134.26   130.08   125.56   120.78   115.69   110.66   
 101.65   
89898.03 87093.01 84755.40 83653.01 78559.58 72978.79 67331.59 61874.60 55176.08 49199.59 
 43481.58 37306.00 30824.62 25964.04 23546.35 21576.40 19713.59 18217.01 16596.45 12708.84 
 10540.93 8393.95  6246.97  4624.20  3540.04  2412.63  1705.18  1002.15  299.12   208.68   
 150.39   127.03   104.08   81.13    62.93    55.44    48.05    40.55    36.50    34.06    
 30.30    27.27    24.29    22.25    20.44    18.75    17.09    15.59    14.27    12.85    
 11.46    10.06    8.87     8.58     8.98     9.15     8.92     8.49     7.99     7.52     
 7.10     6.73     6.41     6.11     5.87     5.66     5.48     5.31     5.13     4.96     
 4.82     4.70     4.57     4.45     4.34     4.25     4.18     4.12     4.09     4.09     
 4.13     4.26     4.44     4.66     4.90     5.16     5.44     5.76     6.10     6.49     
 6.91     7.38     7.87     8.41     9.02     9.67     10.36    11.10    11.88    12.72    
 13.59    14.51    15.47    16.48    17.54    18.66    19.80    20.98    22.22    23.51    
 24.83    26.23    27.68    29.16    30.72    32.38    34.04    35.78    37.56    39.40    
 41.26    43.16    45.10    47.06    49.03    51.05    53.15    55.32    57.51    59.71    
 62.00    64.38    66.88    69.47    72.21    75.03    77.97    81.12    84.35    87.66    
 90.99    94.51    98.12    101.82   105.58   109.50   113.49   117.48   121.33   125.20   
 129.03   132.64   136.08   139.33   142.54   145.39   147.93   150.18   152.21   154.01   
 155.37   156.22   156.58   156.56   156.01   155.15   153.92   152.27   150.97   149.09   
 146.85   144.37   141.43   138.56   135.26   131.61   127.76   123.68   119.75   115.71   
 101.65   
89898.03 87247.03 84753.13 83317.72 82351.04 78247.86 71790.45 68192.59 63802.12 58319.87 
 53197.83 48322.31 42673.55 38531.56 34065.40 28181.20 25379.24 22586.03 20693.23 18888.11 
 17250.84 15699.39 14302.74 11147.39 9402.18  7621.56  5770.94  4879.65  3617.94  2761.42  
 1904.22  958.31   580.94   403.71   328.21   252.70   177.66   153.93   129.85   111.32   
 92.79    80.56    69.94    60.90    52.86    46.62    41.15    35.95    32.77    29.97    
 27.08    23.02    19.12    16.12    14.29    13.12    12.96    12.46    11.90    11.13    
 10.43    9.78     9.18     8.65     8.23     7.88     7.55     7.19     6.90     6.63     
 6.38     6.11     5.85     5.59     5.34     5.09     4.87     4.71     4.60     4.59     
 4.63     4.80     5.06     5.38     5.72     6.10     6.51     6.98     7.46     7.98     
 8.54     9.14     9.74     10.42    11.15    11.92    12.72    13.56    14.50    15.47    
 16.44    17.47    18.56    19.72    20.94    22.16    23.43    24.77    26.18    27.63    
 29.09    30.64    32.25    33.89    35.53    37.26    39.06    40.91    42.71    44.62    
 46.64    48.75    50.93    53.11    55.33    57.64    60.07    62.63    65.28    67.90    
 70.58    73.42    76.34    79.26    82.19    85.27    88.43    91.51    94.67    97.91    
 101.22   104.51   107.75   110.98   114.16   117.35   120.42   123.42   126.33   129.16   
 131.92   134.53   137.00   139.42   141.68   143.77   145.62   147.06   148.30   149.22   
 149.95   150.50   150.80   150.74   150.42   149.91   149.15   148.11   146.95   145.62   
 144.03   142.27   140.86   138.28   135.56   132.85   129.92   126.88   123.97   120.78   
 101.65   
89898.03 87776.45 85489.63 84095.98 82992.06 81397.11 80115.11 76087.27 71209.45 68272.43 
 64534.64 61078.82 57486.33 53091.00 49943.61 46914.70 42404.43 38806.44 35787.28 32103.15 
 28690.56 24869.34 22213.46 20294.27 18597.13 16941.25 15445.34 14032.78 12582.29 11077.03 
 9571.09  8065.15  6705.29  5427.94  4349.01  3636.61  2964.92  2371.73  1829.77  1346.28  
 1053.85  763.82   473.79   358.04   283.42   222.08   177.05   142.68   123.12   103.70   
 84.29    73.01    61.61    53.83    46.26    40.14    36.34    32.80    28.49    25.91    
 22.66    19.28    16.15    15.26    14.51    13.52    12.45    11.55    10.61    9.93     
 9.44     8.86     8.38     8.01     7.62     7.19     6.74     6.33     6.00     5.78     
 5.70     5.86     6.20     6.60     7.02     7.47     7.95     8.48     9.06     9.67     
 10.35    11.08    11.88    12.68    13.56    14.49    15.47    16.49    17.59    18.76    
 19.99    21.25    22.59    24.00    25.46    26.95    28.54    30.15    31.84    33.59    
 35.39    37.26    39.20    41.14    43.20    45.32    47.48    49.70    52.01    54.35    
 56.76    59.17    61.74    64.31    66.92    69.57    72.33    75.12    77.94    80.74    
 83.58    86.44    89.34    92.23    95.08    97.89    100.74   103.61   106.46   109.27   
 112.04   114.76   117.47   120.15   122.72   125.23   127.69   130.07   132.15   134.00   
 135.70   137.24   138.75   139.95   141.17   142.23   143.17   143.96   144.68   145.36   
 145.92   146.46   146.89   147.17   147.30   147.33   147.02   146.44   145.80   145.01   
 144.24   142.87   141.43   139.95   138.15   136.25   134.42   132.35   130.11   127.77   
 101.65   
89898.03 88885.02 86920.13 85582.72 84359.76 82898.97 81775.01 80116.93 79067.41 77437.80 
 76223.19 74790.39 73336.78 71256.63 68301.56 65839.89 62891.25 60677.18 58432.39 56221.97 
 53648.57 51267.04 49011.20 46410.32 43983.11 41385.28 38857.22 36722.59 34240.36 31999.33 
 29386.88 27092.56 25043.63 22994.70 20947.77 19138.73 17268.62 15498.64 13983.50 12608.00 
 11325.53 10243.45 9115.53  8112.71  7100.10  6195.35  5351.68  4588.74  3810.49  3171.00  
 2531.51  1894.53  1514.81  1222.90  1001.33  824.20   670.98   541.27   422.95   324.32   
 258.49   192.88   150.41   118.78   94.50    75.71    61.26    49.55    39.28    33.85    
 28.41    23.33    18.80    17.76    16.02    14.24    12.63    11.38    10.11    8.48     
 6.62     5.52     5.61     5.95     6.34     6.75     7.23     7.73     8.25     8.82     
 9.43     10.07    10.77    11.54    12.36    13.22    14.14    15.12    16.17    17.30    
 18.47    19.67    20.96    22.36    23.83    25.34    26.89    28.55    30.24    31.97    
 33.85    35.84    37.83    39.83    41.89    44.09    46.36    48.73    51.04    53.42    
 55.92    58.50    61.17    63.91    66.57    69.32    72.11    74.98    77.87    80.78    
 83.58    86.52    89.43    92.31    94.99    97.74    100.58   103.22   105.78   108.05   
 109.68   111.89   114.29   116.57   118.86   121.15   123.28   125.34   127.23   129.06   
 130.82   132.55   134.13   135.69   137.13   138.50   139.82   141.02   142.15   143.21   
 144.19   145.19   146.14   146.93   147.58   148.05   148.25   148.23   148.12   147.90   
 147.54   147.01   146.37   145.62   144.73   143.46   142.13   140.73   139.07   137.32   
 101.65   
89898.03 89917.26 89157.30 88683.39 88217.02 87389.36 86550.01 85419.00 84739.85 83472.26 
 82388.50 81755.83 80586.19 79714.87 78532.93 77281.45 76192.14 75374.33 74051.76 72661.01 
 71218.51 70130.31 68712.58 67327.10 65631.29 64235.51 62352.08 60858.75 59124.41 57160.71 
 55256.57 53241.99 51428.39 49448.76 47552.72 45664.29 43399.49 41222.64 39429.74 37867.67 
 36035.94 34216.29 32321.44 30554.87 28886.00 27064.36 25442.93 23821.49 22199.91 20567.95 
 19098.74 17710.60 16403.06 15077.75 13864.40 12679.32 11611.10 10582.42 9595.61  8678.41  
 7894.97  7121.85  6371.33  5691.09  5065.62  4518.87  3991.14  3509.30  3060.46  2680.70  
 2301.61  1980.11  1694.84  1434.67  1200.66  984.19   791.40   628.47   490.42   367.09   
 272.80   178.82   111.55   60.18    17.37    5.18     3.93     3.59     3.52     3.45     
 3.31     2.89     2.59     2.65     2.75     2.86     2.99     3.16     3.35     3.57     
 3.78     4.01     4.24     4.50     4.76     5.02     5.31     5.61     5.94     6.29     
 6.65     7.04     7.45     7.91     8.40     8.91     9.42     9.97     10.54    11.14    
 11.77    12.43    13.10    13.80    14.54    15.32    16.13    16.96    17.81    18.68    
 19.59    20.51    21.47    22.51    23.56    24.63    25.76    26.90    28.12    29.34    
 30.62    31.96    33.36    34.85    36.39    38.05    39.76    41.42    43.11    44.87    
 46.70    48.61    50.63    52.70    54.83    57.10    59.53    62.19    64.92    67.74    
 70.73    73.95    77.33    80.84    84.44    87.99    91.37    94.56    97.47    100.47   
 103.36   106.32   109.26   112.16   114.90   117.25   119.48   121.61   123.52   125.42   
 101.65   
89898.03 90613.15 90606.86 91241.48 91777.34 92231.30 92347.28 92615.33 92868.94 93206.12 
 93149.27 93483.81 93610.30 93719.05 93931.47 93657.58 93305.07 92839.50 92313.06 91491.10 
 90598.59 89637.67 88365.03 86954.05 85386.32 83741.46 81844.48 79803.38 77269.69 74886.49 
 72261.70 69670.48 67278.95 64937.07 62655.45 60549.92 58318.10 55909.62 53733.30 51811.73 
 49888.72 47874.01 46045.77 44063.78 42040.50 40232.27 38298.21 36438.91 34699.99 32962.00 
 31117.22 29537.53 27936.55 26387.17 24878.14 23405.35 22060.53 20796.60 19541.32 18266.15 
 17058.69 15926.73 14792.24 13737.41 12751.11 11811.13 10871.57 9932.01  9156.93  8354.53  
 7638.48  6929.59  6303.43  5702.42  5208.30  4718.04  4276.71  3845.93  3460.12  3121.22  
 2817.49  2542.78  2290.96  2056.16  1837.79  1647.06  1475.18  1330.55  1190.21  1066.60  
 943.14   828.33   729.23   639.98   563.17   495.71   438.35   390.45   348.54   310.92   
 278.90   251.51   228.42   207.54   188.47   170.98   155.77   142.19   130.10   119.71   
 109.33   101.49   93.90    84.45    73.51    61.07    48.18    37.13    30.71    21.78    
 11.09    8.16     8.19     8.68     9.25     9.88     10.53    11.21    11.94    12.71    
 13.49    14.25    15.14    16.05    17.00    17.97    19.09    20.51    21.14    21.67    
 22.53    23.55    24.47    25.34    26.30    27.15    27.89    29.02    30.58    32.20    
 33.63    35.02    35.84    37.03    38.70    40.42    42.34    44.41    46.57    48.92    
 51.46    54.28    57.28    60.58    64.13    68.15    71.91    74.88    78.20    81.68    
 85.16    88.76    92.29    95.80    99.32    102.72   106.14   109.38   112.54   115.72   
 101.65   
89898.03 91261.06 92846.09 94304.73 96208.71 97988.47 99717.90 101249.16 102563.43 104048.85 
 105125.60 105717.00 105752.31 105333.95 104335.79 102557.03 99904.12 97209.18 94982.08 92859.35 
 90634.01 88319.88 85924.51 83768.51 81594.23 79567.45 77526.90 75668.10 73664.77 71588.25 
 69712.08 67830.57 65924.41 63952.93 61852.46 59644.47 57462.34 55444.34 53468.42 51344.84 
 49215.93 47296.20 45444.19 43689.22 42040.85 40279.23 38748.19 37130.21 35588.20 34058.74 
 32577.94 31161.99 29829.04 28440.24 27067.99 25729.46 24555.60 23379.29 21987.68 20657.07 
 19423.07 18419.96 17382.14 16382.52 15429.11 14396.83 13430.05 12490.97 11529.86 10626.58 
 9719.64  8881.01  8106.02  7308.41  6481.98  5742.77  5117.28  4556.42  4056.28  3554.64  
 3137.32  2838.46  2539.60  2241.61  2015.66  1818.37  1644.33  1501.68  1378.32  1243.98  
 1113.89  993.99   885.48   793.76   711.02   643.79   584.78   535.02   491.04   452.46   
 419.42   391.51   365.96   344.93   326.46   310.61   296.31   283.37   271.80   261.84   
 252.77   244.46   236.16   227.87   220.57   213.76   207.36   201.30   195.52   189.38   
 183.24   177.40   171.46   165.24   157.89   149.27   140.13   131.13   121.79   111.60   
 100.45   88.81    74.64    51.88    34.64    27.16    23.01    19.98    13.82    10.99    
 11.63    12.48    13.37    14.29    15.26    16.26    17.28    18.31    19.39    20.52    
 21.76    23.07    24.28    25.80    29.96    36.09    29.59    30.64    32.26    34.10    
 36.21    38.63    41.50    44.67    47.97    51.40    54.54    57.98    61.52    65.34    
 69.04    72.95    76.92    81.09    85.39    89.66    94.00    98.22    102.51   106.94   
 101.65   
89898.03 92295.57 95050.77 97512.71 100584.65 103401.36 106207.86 108770.64 110300.43 110765.69 
 110437.97 107908.52 104912.32 102584.32 99937.71 97588.69 95144.54 93024.42 91067.25 88971.84 
 86723.26 84501.26 81971.72 79259.57 76405.92 73659.13 71117.28 68699.66 66471.99 64429.91 
 62697.18 61107.20 59874.18 58752.29 57831.24 56783.93 55699.56 54658.91 53461.78 51996.74 
 50469.13 48741.22 47155.23 45670.48 44266.57 42723.43 40807.20 38903.87 37244.73 35503.46 
 33842.13 32268.71 30744.08 29199.94 27715.54 26243.68 24867.88 23544.88 22210.32 20779.65 
 19468.27 18177.33 16974.86 15717.36 14459.31 13329.12 12232.08 11040.01 9847.11  8763.39  
 7886.59  7155.83  6467.82  5822.77  5239.27  4621.95  4071.54  3625.06  3238.26  2891.70  
 2584.80  2312.29  2061.14  1837.14  1654.01  1491.94  1361.65  1238.14  1142.01  1046.13  
 941.85   844.58   760.63   687.41   624.01   570.87   525.94   488.33   456.11   427.87   
 404.24   384.32   366.56   351.18   336.65   323.97   313.02   302.98   293.60   284.36   
 276.12   268.89   262.94   256.69   250.53   244.89   239.57   234.47   229.24   223.91   
 219.11   214.01   207.99   201.70   195.49   189.20   183.17   177.36   171.48   165.62   
 159.86   154.48   149.51   144.45   139.21   133.58   126.42   119.24   110.81   100.82   
 90.06    81.03    70.87    46.02    21.78    17.61    15.31    13.91    12.62    12.74    
 13.79    14.91    16.05    17.27    18.55    19.87    21.29    22.79    24.61    26.75    
 29.38    37.01    38.32    35.23    37.76    40.64    43.83    47.05    50.45    54.05    
 57.69    61.57    65.75    70.02    74.48    79.04    83.92    89.02    94.17    99.55    
 101.65   
89898.03 92989.63 96708.43 100464.69 104015.05 107691.04 110862.36 112582.53 113356.07 111429.42 
 108278.73 105728.58 103304.78 100758.00 98627.36 96581.46 94281.30 91737.19 88813.78 85228.52 
 81850.74 78611.21 75598.64 72892.63 70818.25 69168.01 67953.29 67115.14 66076.76 64972.39 
 63694.66 62277.99 60899.87 59387.31 57630.76 55483.56 53391.69 51251.79 49098.46 46826.26 
 44618.70 42478.79 40544.12 38921.64 37347.75 35834.52 34389.27 32951.44 31466.33 30033.39 
 28624.72 27243.61 25833.89 24424.18 23015.16 21672.47 20307.90 19052.68 17838.41 16629.96 
 15471.19 14405.49 13243.88 11949.45 10858.42 9966.23  9156.82  8400.78  7711.19  7099.16  
 6509.97  5970.31  5411.35  4797.65  4365.57  3975.49  3597.94  3241.60  2937.16  2632.73  
 2328.90  2078.31  1851.37  1657.21  1477.21  1325.94  1203.45  1095.95  1003.84  926.55   
 849.62   765.40   687.50   622.25   565.08   517.53   476.88   440.94   410.18   383.54   
 363.10   346.91   333.93   322.18   311.58   302.51   294.63   286.75   279.93   273.95   
 267.82   261.27   255.50   250.02   243.55   237.08   230.60   224.03   217.55   211.28   
 205.95   200.91   196.22   191.91   187.82   183.93   179.97   176.03   172.12   168.25   
 164.52   160.73   156.68   152.70   148.89   144.83   140.17   135.42   129.60   122.73   
 115.49   106.39   97.30    94.15    91.13    86.26    85.63    81.92    72.43    36.62    
 19.89    17.12    15.70    13.78    14.14    15.61    17.13    18.70    20.42    22.26    
 24.17    26.21    28.37    31.01    37.07    45.03    38.04    41.18    44.46    48.10    
 51.66    55.46    59.52    63.71    67.99    72.47    77.43    82.95    88.79    94.96    
 101.65   
89898.03 93818.17 98143.45 102671.10 107172.40 111192.18 113644.87 114554.95 112144.63 109015.00 
 106456.18 104017.93 101875.33 99946.30 97600.67 94841.30 91490.10 87739.75 83961.63 80477.63 
 77644.94 75315.67 73384.93 71999.12 70888.69 69684.88 68392.64 67047.60 65650.81 64002.97 
 62050.42 59756.82 57249.19 54779.46 52393.69 50171.91 47919.61 45535.57 43252.38 40959.78 
 38774.43 36757.18 35067.74 33815.07 32777.27 31805.04 30777.60 29705.88 28633.81 27442.18 
 26177.37 24868.82 23607.58 22318.94 21073.82 19852.97 18715.93 17587.58 16491.16 15255.56 
 13931.19 12732.99 11997.63 11063.45 10127.30 9368.56  8682.86  8027.66  7424.79  6866.37  
 6324.86  5663.11  5162.20  4693.79  4286.96  3908.14  3550.56  3179.45  2849.38  2571.74  
 2315.13  2082.52  1864.23  1672.43  1502.88  1353.30  1220.85  1112.58  1004.54  924.18   
 854.32   772.82   688.31   613.03   549.31   493.10   445.68   407.34   376.90   348.83   
 325.21   306.50   292.96   282.42   273.29   265.48   258.26   251.99   246.33   240.85   
 235.50   230.37   225.72   220.64   216.08   211.17   206.74   202.37   197.86   192.83   
 187.96   183.79   179.06   175.20   171.34   168.01   164.33   160.95   157.85   154.91   
 151.45   148.12   144.57   141.24   138.00   134.67   129.47   124.25   119.04   116.62   
 114.07   111.13   108.12   105.19   102.14   99.61    96.99    93.14    87.11    83.92    
 79.72    60.90    16.34    13.58    12.98    14.16    15.18    16.75    18.59    20.53    
 22.78    25.23    27.73    30.26    32.97    36.71    50.53    40.68    43.63    47.14    
 50.78    54.57    58.69    62.97    67.25    71.83    76.69    82.21    87.96    94.01    
 101.65   
89898.03 93996.48 98348.83 103044.79 107619.84 111681.62 113957.33 114379.93 111479.68 108587.90 
 106118.86 103836.76 101949.98 99931.00 97449.76 94433.67 90787.25 86811.48 83125.03 80069.47 
 77481.70 75244.36 73852.02 72789.45 71763.63 70482.70 69089.00 67545.47 65742.14 63755.85 
 61400.97 58786.67 56281.08 53919.94 51701.07 49428.73 46988.05 44397.03 41836.31 39490.12 
 37510.11 35977.57 34804.46 33846.33 32943.60 32024.42 31053.21 30041.38 28945.24 27761.35 
 26533.24 25254.16 23975.08 22696.31 21448.11 20222.31 19059.36 17903.42 16726.59 15446.10 
 14070.73 12896.80 12027.51 11202.88 10415.26 9662.23  8957.69  8310.04  7714.06  7169.59  
 6628.08  5962.77  5431.56  4958.12  4542.76  4146.27  3762.93  3393.18  3053.16  2782.02  
 2510.89  2240.27  2013.76  1807.07  1619.55  1446.43  1296.62  1167.98  1055.95  961.41   
 881.87   810.69   728.80   645.62   570.09   505.11   450.18   404.21   365.22   334.08   
 306.65   284.71   266.92   255.49   247.45   239.41   231.40   225.95   221.00   216.51   
 212.22   208.19   204.30   200.71   197.08   193.50   190.27   187.01   183.90   180.77   
 177.77   174.28   171.60   169.00   166.38   163.63   160.95   158.26   155.79   153.14   
 150.73   148.03   145.22   142.39   139.31   136.47   133.33   128.79   121.83   119.52   
 117.16   115.32   113.20   110.51   107.82   105.17   102.82   100.39   97.91    95.50    
 92.70    88.05    66.05    18.09    16.35    15.51    15.27    16.67    19.03    21.00    
 23.42    26.06    28.78    31.76    34.81    38.49    48.13    46.93    45.97    49.46    
 53.18    57.15    61.29    65.64    69.84    74.12    78.85    84.08    89.85    95.89    
 101.65   
89898.03 93827.04 98037.15 102300.49 106395.44 109921.94 111750.14 111638.10 108658.81 106001.66 
 103861.28 101749.00 99895.77 98111.42 95892.01 93166.72 89814.64 86131.61 82668.62 79607.45 
 77059.56 74743.72 73221.98 72166.02 71243.39 70164.87 68900.61 67618.80 66153.23 64442.99 
 62463.94 60149.26 57682.53 55308.56 53100.15 50979.43 48808.42 46436.82 44030.99 41724.09 
 39496.53 37481.29 35812.93 34504.47 33481.54 32531.68 31566.73 30601.65 29573.78 28466.91 
 27276.31 26066.20 24824.55 23574.77 22281.81 21074.70 19884.03 18768.03 17617.35 16497.77 
 15327.41 14042.38 12823.50 11840.33 11007.53 10176.13 9455.02  8765.89  8108.44  7516.89  
 6964.85  6454.11  5871.64  5280.70  4806.82  4398.83  4014.49  3631.56  3269.31  2927.51  
 2653.10  2393.56  2143.29  1921.55  1724.83  1546.62  1383.29  1245.13  1138.75  1032.67  
 926.58   855.15   782.21   702.06   626.82   556.78   499.12   452.18   412.78   378.76   
 349.66   326.00   306.75   293.37   282.00   273.13   265.76   259.53   254.00   248.64   
 243.59   239.31   235.08   230.89   227.00   223.42   220.05   216.90   213.41   209.49   
 204.92   200.81   196.62   192.18   187.99   184.02   179.79   175.51   171.59   167.45   
 163.65   160.11   156.05   151.40   145.75   139.84   132.94   127.48   122.02   122.29   
 125.60   125.94   123.81   121.04   117.55   114.31   110.64   105.48   97.93    92.38    
 86.15    66.54    26.71    22.15    19.58    17.49    18.17    20.58    23.12    25.83    
 28.70    31.71    34.86    38.17    41.79    48.27    53.78    50.22    53.19    56.57    
 60.00    63.72    67.76    71.64    75.47    79.56    84.02    88.90    93.95    99.29    
 101.65   
89898.03 93305.23 96803.94 100453.70 104010.04 107568.16 109993.13 111268.17 110694.98 107975.91 
 105670.83 104086.27 102335.92 100770.31 99314.64 97580.41 95385.08 92793.26 89667.77 85960.80 
 82338.41 79177.73 76462.14 74096.59 71968.95 70508.62 69389.44 68412.55 67271.51 66097.05 
 64747.73 63471.06 62017.39 60447.45 58597.60 56504.95 54342.59 52228.17 50206.80 48137.75 
 46000.38 44008.52 41996.90 40110.99 38293.46 36660.96 35166.47 33794.40 32548.01 31372.36 
 30240.56 29185.27 28012.98 26834.86 25537.02 24304.78 23072.37 21824.68 20567.00 19300.67 
 18140.25 16973.41 15832.30 14725.43 13637.61 12502.28 11350.68 10381.62 9598.26  8857.66  
 8188.60  7514.84  6911.74  6364.38  5848.60  5298.67  4704.49  4263.67  3870.68  3507.66  
 3171.22  2874.72  2578.23  2282.34  2036.75  1809.29  1625.46  1457.70  1314.70  1188.95  
 1075.16  979.67   903.61   829.26   748.16   672.03   601.86   542.23   492.30   450.04   
 415.34   386.62   363.46   345.35   329.92   316.97   305.36   295.25   286.61   279.05   
 271.90   265.28   259.33   253.35   247.88   242.92   237.26   231.59   225.93   220.50   
 215.06   209.18   203.78   198.57   193.81   189.55   185.29   181.01   177.23   173.42   
 169.38   165.63   162.01   158.47   154.64   151.03   147.16   143.07   138.95   134.24   
 129.34   123.87   118.60   113.01   105.72   97.30    91.00    84.50    75.05    38.18    
 25.71    21.33    18.88    17.41    19.60    22.09    24.78    27.68    30.77    34.07    
 37.53    41.05    44.79    49.14    56.49    55.59    58.05    61.24    64.54    67.68    
 71.07    74.82    78.34    81.48    84.77    88.62    92.82    97.13    101.58   106.25   
 101.65   
89898.03 92460.81 95112.35 98017.68 100917.19 103936.94 106860.88 109022.20 110694.18 111459.64 
 110085.70 107934.32 106134.38 103804.24 101613.81 99109.10 97265.23 95658.21 93898.09 91689.45 
 89422.18 86749.98 83949.70 80907.11 77823.58 75066.70 72530.46 70247.45 68212.64 66234.67 
 64521.53 63180.21 62227.27 61375.03 60414.69 59507.92 58543.21 57441.77 56416.06 55392.02 
 54123.21 52657.69 51205.85 49602.52 48075.61 46561.04 44980.43 43235.80 41470.39 39724.29 
 37971.44 36318.67 34810.67 33443.99 31985.31 30584.10 29311.79 28137.85 26883.00 25534.06 
 24184.39 22846.15 21585.94 20303.18 19024.09 17729.49 16574.73 15401.78 14197.54 13063.08 
 12007.05 10908.34 9809.31  8803.67  7936.84  7235.64  6547.83  5923.20  5323.59  4747.85  
 4165.61  3740.36  3345.57  2987.51  2650.41  2385.60  2136.47  1909.55  1719.49  1556.58  
 1412.04  1281.86  1174.29  1075.97  977.73   874.72   784.45   707.37   640.77   582.67   
 532.12   491.10   456.14   426.72   400.15   377.00   357.42   340.77   326.02   312.48   
 300.82   290.31   280.71   271.97   263.49   256.07   249.13   242.89   236.81   231.11   
 225.50   220.27   214.75   209.35   204.38   199.63   194.66   188.97   182.78   176.49   
 170.41   164.33   158.03   152.42   146.38   140.30   133.88   128.05   120.81   113.56   
 105.12   94.16    82.04    60.91    33.78    25.10    20.96    18.85    18.22    20.00    
 22.15    24.41    26.82    29.37    32.03    34.79    37.70    40.86    44.11    47.56    
 52.96    56.23    56.62    59.52    62.66    65.91    69.17    72.96    76.15    79.38    
 82.49    85.78    88.45    91.47    94.81    98.34    101.94   105.65   109.28   113.11   
 101.65   
89898.03 91501.89 93065.91 94887.30 97105.97 99399.31 101766.20 104417.52 106837.72 108929.51 
 109879.19 109918.66 109611.57 108913.55 107351.58 105045.80 102618.46 100417.58 98311.82 96353.84 
 94280.26 92084.78 90132.18 87980.25 86088.05 84127.11 82269.89 80312.59 78434.15 76647.89 
 74781.12 72896.94 70950.70 69021.70 66891.91 64892.35 62721.77 60887.04 58858.87 56900.28 
 54916.05 53054.65 51320.99 49632.37 48153.68 46658.66 45095.67 43710.40 42230.62 40976.01 
 39702.07 38434.13 37027.14 35677.72 34285.76 32897.23 31467.10 30144.77 28725.33 27314.31 
 25958.56 24675.44 23392.31 22108.49 20772.09 19642.31 18546.81 17556.84 16587.56 15599.49 
 14588.31 13556.61 12621.34 11712.59 10845.72 9929.27  9079.11  8278.95  7542.77  6742.94  
 6000.16  5350.84  4775.20  4265.18  3774.31  3304.73  2962.20  2673.68  2385.70  2148.84  
 1940.18  1759.86  1604.26  1472.50  1340.71  1199.01  1069.73  952.93   855.09   761.22   
 683.24   616.93   558.87   509.26   466.88   430.54   398.35   369.69   345.45   325.00   
 305.75   288.52   273.57   261.01   249.59   238.34   227.13   218.83   210.40   202.38   
 194.58   186.62   178.39   170.02   161.37   152.76   144.91   137.07   129.40   121.39   
 112.66   102.98   91.74    78.26    61.71    46.37    38.91    32.96    21.95    15.84    
 17.19    18.90    20.70    22.61    24.59    26.76    29.00    31.29    33.71    36.25    
 39.00    41.95    45.20    49.34    53.12    53.34    55.56    57.60    60.13    62.74    
 65.40    68.08    70.76    73.50    76.31    79.34    82.53    85.87    88.94    91.81    
 94.73    97.68    100.69   103.75   106.86   109.84   112.95   116.00   119.04   122.00   
 101.65   
89898.03 90396.80 90903.05 91717.08 92778.92 94034.04 95678.75 97249.54 98399.60 98861.16 
 99121.95 99587.25 100073.81 100268.51 100055.82 100229.47 100114.19 99934.26 99442.70 98695.39 
 97910.69 96970.05 96277.08 95177.57 93735.89 91886.45 90037.69 88108.52 85983.06 83824.55 
 81790.16 79651.94 77466.07 75252.55 73299.55 71146.33 68968.08 66629.95 64475.66 62445.15 
 60392.55 58499.12 56552.77 54496.99 52553.07 50598.46 48655.44 46852.68 45140.63 43390.32 
 41500.71 39639.90 37876.60 36036.45 34261.69 32573.14 30803.61 29270.83 27763.40 26334.05 
 24780.65 23242.19 21893.99 20672.08 19334.71 18132.38 17001.32 15925.37 14807.07 13719.56 
 12776.39 11822.67 10890.41 9958.30  9143.43  8373.07  7648.84  6932.93  6238.00  5658.85  
 5115.42  4646.48  4197.49  3784.92  3385.29  3048.84  2744.14  2460.24  2217.93  1985.86  
 1768.09  1571.74  1401.23  1259.35  1136.68  1014.16  891.64   785.12   691.10   601.56   
 525.66   462.44   408.48   362.15   320.43   283.63   252.79   225.63   202.59   182.72   
 164.88   149.18   136.26   124.98   113.62   102.26   89.68    75.22    59.97    49.02    
 41.90    25.32    12.34    11.30    12.14    13.12    14.20    15.40    16.58    17.86    
 19.19    20.54    22.03    23.62    25.33    27.03    28.88    30.76    32.67    34.29    
 36.19    38.01    39.95    41.93    43.91    45.97    48.20    50.92    52.95    54.99    
 57.99    60.92    62.63    64.93    67.49    68.77    70.97    73.47    75.92    78.41    
 80.93    83.51    86.10    88.67    91.19    93.79    96.39    99.37    102.30   105.37   
 108.57   111.26   114.16   117.12   119.88   122.56   125.22   127.90   130.50   132.94   
 101.65   
89898.03 89285.85 88873.84 88742.34 88780.77 89142.10 89702.05 90109.73 89475.59 88431.80 
 88181.45 87181.77 86264.79 85352.82 84262.02 83376.05 82117.87 81368.15 80065.48 79240.02 
 78102.92 76838.90 75819.69 74743.73 73436.60 72226.32 70917.71 69516.45 68098.53 66831.19 
 65026.01 63448.41 61794.21 60198.64 58353.50 56469.77 54597.57 52590.34 50908.33 48622.25 
 46693.35 44828.58 42472.35 40467.49 38744.85 36977.77 35142.61 33302.72 31586.02 29703.62 
 27899.97 26365.96 24756.00 23200.63 21558.58 20030.65 18567.62 17232.45 15847.04 14576.34 
 13374.46 12220.16 11140.47 10061.71 9143.82  8318.85  7492.55  6738.70  6046.49  5408.54  
 4786.50  4234.74  3710.94  3235.06  2812.89  2443.27  2097.64  1778.04  1492.57  1244.54  
 1029.22  814.26   630.35   479.85   352.75   245.26   163.73   102.74   42.00    10.05    
 7.30     7.26     7.33     7.50     7.71     7.94     8.18     8.25     8.20     8.67     
 9.18     9.73     10.35    11.01    11.76    12.54    13.37    14.22    15.13    16.10    
 17.14    18.23    19.38    20.61    21.94    23.31    24.71    26.17    27.73    29.35    
 31.02    32.73    34.56    36.43    38.30    40.21    42.19    44.29    46.42    48.59    
 50.78    52.96    55.17    57.44    59.79    62.13    64.46    66.74    69.01    71.44    
 73.89    76.27    78.56    80.83    83.13    85.44    87.70    89.96    92.15    94.33    
 96.49    98.61    100.69   102.76   104.81   106.70   108.47   110.15   111.86   113.50   
 115.11   116.59   118.06   119.45   120.70   121.89   123.10   124.26   125.45   126.49   
 127.33   128.10   128.97   129.88   130.20   130.25   130.12   129.67   128.92   127.83   
 101.65   
89898.03 88821.58 87951.01 87362.08 87047.14 87046.16 87363.16 87578.10 85947.17 82450.49 
 79912.73 76979.70 74522.05 73057.54 70208.94 68225.52 65805.67 63605.33 61428.72 58438.66 
 55846.60 53109.23 51176.99 49104.14 46916.74 44398.88 41502.78 39108.83 37118.51 34829.38 
 32542.58 30271.25 28225.12 25876.31 23527.50 21183.93 19450.29 17867.59 16392.19 15024.82 
 13673.81 12548.33 11358.39 10135.99 9114.25  8284.60  7540.32  6609.94  5624.60  4686.58  
 3842.20  3282.06  2721.92  2163.25  1801.22  1519.64  1261.77  1044.00  849.64   693.55   
 558.30   447.24   353.73   293.18   232.63   172.30   139.55   113.71   92.13    76.00    
 64.35    53.76    44.50    39.43    33.66    29.27    25.02    21.60    17.97    13.85    
 12.87    12.16    11.02    10.10    9.19     8.25     7.29     6.37     6.17     6.47     
 6.84     7.26     7.71     8.21     8.75     9.32     9.90     10.56    11.27    12.03    
 12.82    13.63    14.50    15.49    16.50    17.53    18.61    19.75    20.96    22.19    
 23.53    24.94    26.45    27.94    29.51    31.17    32.89    34.70    36.52    38.38    
 40.34    42.40    44.48    46.57    48.68    50.86    53.10    55.45    57.88    60.23    
 62.71    65.21    67.77    70.35    72.97    75.54    78.19    80.85    83.09    85.22    
 87.92    90.78    93.47    95.83    97.40    98.87    100.98   103.19   105.34   107.47   
 109.58   111.70   113.69   115.67   117.56   119.36   121.03   122.50   123.92   125.15   
 126.29   127.30   128.19   129.00   129.73   130.38   130.97   131.54   131.87   132.00   
 131.92   131.83   131.79   130.91   130.45   129.45   127.99   126.20   124.03   121.52   
 101.65   
89898.03 88457.70 87387.88 86657.65 85938.98 81742.82 77256.86 75570.88 72647.41 69680.50 
 65292.66 60752.54 57388.63 53394.94 48715.18 45438.54 41480.03 37742.86 33697.58 29062.15 
 26573.73 24613.90 22931.38 21443.59 19965.94 18580.25 17199.54 16001.95 14719.28 12765.68 
 11046.54 9330.40  7739.77  6457.70  5262.14  4636.24  3629.55  2917.97  2253.08  1574.30  
 1233.13  896.22   559.30   423.15   330.71   269.12   222.30   181.26   152.49   127.60   
 109.64   91.75    75.81    62.33    53.58    47.69    42.48    37.86    33.39    30.72    
 28.22    25.98    24.56    23.04    21.62    20.19    18.61    17.07    15.25    12.37    
 11.06    10.46    9.97     9.65     9.28     8.92     8.60     8.29     7.98     7.69     
 7.40     7.14     6.92     6.73     6.60     6.53     6.54     6.79     7.18     7.62     
 8.08     8.58     9.08     9.68     10.33    11.01    11.76    12.56    13.41    14.28    
 15.25    16.24    17.25    18.35    19.53    20.78    22.05    23.37    24.73    26.20    
 27.69    29.25    30.82    32.49    34.25    36.09    37.95    39.85    41.83    43.87    
 45.95    48.10    50.33    52.60    54.86    57.12    59.44    61.89    64.34    66.85    
 69.37    71.86    74.39    77.01    79.71    82.43    85.16    87.88    90.62    93.38    
 96.07    98.84    101.59   104.32   107.07   109.91   112.70   115.54   118.22   120.83   
 123.29   125.55   127.70   129.68   131.52   133.18   134.68   136.03   137.18   138.25   
 139.13   139.92   140.54   141.12   141.44   141.44   141.28   140.95   140.43   139.54   
 138.37   136.95   135.43   133.60   131.02   128.65   126.05   123.00   119.34   115.28   
 101.65   
89898.03 88184.32 86940.66 85902.94 78945.16 75208.28 70732.93 66690.92 60886.41 57474.81 
 50913.75 46777.23 41242.97 36397.86 29923.63 27209.51 25319.06 23430.73 21762.49 20333.61 
 18950.90 17724.90 13668.24 11702.54 9789.83  7593.18  6405.98  4809.01  3867.94  2579.46  
 1296.03  699.65   443.98   352.26   260.55   169.26   127.23   99.86    80.21    61.61    
 49.78    42.39    36.63    32.79    30.02    27.68    25.78    24.56    23.28    22.16    
 21.34    20.73    19.92    18.99    18.20    16.86    15.75    15.10    14.86    14.40    
 13.61    12.16    10.64    9.87     9.48     9.13     8.84     8.56     8.28     8.04     
 7.81     7.59     7.39     7.19     6.97     6.77     6.61     6.47     6.36     6.27     
 6.20     6.18     6.18     6.19     6.22     6.33     6.53     6.81     7.15     7.52     
 7.93     8.39     8.89     9.41     9.97     10.56    11.21    11.89    12.62    13.39    
 14.19    15.03    15.98    17.00    18.05    19.12    20.25    21.44    22.71    24.01    
 25.34    26.80    28.34    29.90    31.48    33.12    34.88    36.67    38.44    40.25    
 42.22    44.24    46.33    48.41    50.52    52.70    54.99    57.40    59.91    62.48    
 65.11    67.81    70.64    73.52    76.43    79.42    82.56    85.69    88.85    92.10    
 95.47    98.82    102.19   105.61   109.07   112.60   116.02   119.40   122.62   125.78   
 128.85   131.86   134.64   137.38   140.06   142.62   144.99   146.91   148.63   150.05   
 151.07   151.77   152.16   152.43   152.42   152.14   151.62   150.79   149.61   148.03   
 145.94   143.56   140.74   136.97   132.96   128.96   124.78   120.53   115.89   110.54   
 101.65   
89898.03 88027.40 86837.23 82294.59 75982.10 70366.35 64746.59 58117.78 52290.16 46280.93 
 39954.14 33994.91 28427.21 26198.54 24365.82 22812.63 21214.70 19699.66 15330.62 12972.04 
 10772.48 8574.52  6376.56  4636.87  3176.01  1339.93  794.47   262.59   157.84   129.75   
 102.54   75.34    59.72    49.22    46.77    40.35    33.68    32.57    28.45    25.87    
 24.45    21.60    20.63    20.00    18.20    17.82    15.95    14.47    13.49    12.46    
 11.76    11.24    10.74    10.26    9.67     8.96     7.91     7.17     6.80     6.59     
 6.45     6.33     6.24     6.13     6.03     5.94     5.83     5.74     5.63     5.55     
 5.46     5.37     5.31     5.25     5.21     5.16     5.13     5.11     5.10     5.10     
 5.10     5.13     5.19     5.29     5.43     5.60     5.82     6.08     6.36     6.66     
 6.98     7.35     7.75     8.22     8.71     9.21     9.79     10.44    11.12    11.84    
 12.64    13.50    14.37    15.32    16.31    17.40    18.53    19.70    20.90    22.17    
 23.54    24.96    26.41    27.92    29.52    31.20    32.89    34.69    36.56    38.47    
 40.39    42.38    44.41    46.49    48.57    50.67    52.86    55.10    57.39    59.66    
 62.02    64.47    67.04    69.68    72.43    75.29    78.37    81.57    84.82    88.16    
 91.52    94.97    98.62    102.36   106.18   110.16   114.22   118.25   122.27   126.35   
 130.37   134.09   137.61   140.79   143.94   146.83   149.34   151.58   153.80   155.96   
 157.73   159.11   160.09   160.60   160.61   160.06   159.08   157.62   155.94   153.92   
 151.27   147.87   144.25   140.08   135.41   130.28   125.01   119.59   114.09   107.81   
 101.65   
89898.03 87769.76 86527.50 81897.71 75034.31 68874.88 61055.93 55942.55 47451.49 40822.41 
 34208.62 28046.96 25992.40 23937.84 21888.14 20375.60 18491.81 14053.15 11180.87 8224.10  
 6903.28  4692.12  2779.04  878.53   467.33   59.59    39.79    24.55    19.01    15.92    
 14.29    12.85    11.93    11.29    10.64    10.23    9.83     9.48     9.01     8.62     
 8.32     7.98     7.59     7.26     7.03     6.76     6.57     6.41     6.26     6.12     
 5.92     5.65     5.40     5.13     5.00     4.94     4.92     4.91     4.91     4.84     
 4.76     4.60     4.47     4.34     4.21     4.11     4.02     3.94     3.85     3.79     
 3.72     3.68     3.68     3.68     3.69     3.70     3.74     3.79     3.84     3.90     
 3.97     4.04     4.15     4.27     4.40     4.56     4.75     4.95     5.18     5.42     
 5.69     5.98     6.30     6.66     7.06     7.48     7.97     8.49     9.05     9.68     
 10.33    11.02    11.76    12.55    13.41    14.29    15.27    16.28    17.34    18.41    
 19.57    20.80    22.07    23.34    24.69    26.15    27.68    29.29    30.95    32.63    
 34.41    36.37    38.41    40.49    42.60    44.78    47.05    49.41    51.85    54.33    
 56.81    59.38    62.01    64.64    67.28    70.02    72.89    75.83    78.78    81.89    
 85.31    88.77    92.36    96.11    99.98    104.14   108.27   112.59   117.05   121.59   
 126.20   130.71   134.98   139.28   143.32   147.09   150.56   153.54   156.36   158.80   
 160.97   162.85   164.34   165.29   165.61   165.33   164.49   162.99   160.92   158.38   
 155.53   152.11   148.09   143.41   138.36   132.50   126.39   119.93   113.74   107.39   
 101.65   
89898.03 87623.40 86420.60 81152.79 74440.23 68955.13 60580.05 54351.33 47028.17 40036.23 
 31823.19 27542.11 25190.44 23113.79 21385.21 19815.15 15253.15 12779.23 10081.03 7379.69  
 5064.04  3492.98  1827.29  1369.50  925.30   481.09   36.89    22.20    17.64    14.79    
 12.99    11.58    10.42    9.44     8.83     8.33     7.84     7.40     6.96     6.60     
 6.30     6.05     5.85     5.73     5.57     5.49     5.34     5.24     5.12     4.99     
 4.79     4.62     4.56     4.53     4.50     4.38     4.21     4.02     3.89     3.80     
 3.72     3.68     3.65     3.62     3.59     3.58     3.57     3.57     3.56     3.55     
 3.55     3.55     3.55     3.55     3.55     3.55     3.55     3.60     3.66     3.73     
 3.83     3.94     4.07     4.20     4.34     4.51     4.70     4.92     5.16     5.45     
 5.75     6.07     6.42     6.80     7.21     7.64     8.13     8.62     9.17     9.78     
 10.46    11.17    11.92    12.72    13.58    14.49    15.41    16.38    17.41    18.49    
 19.62    20.81    22.05    23.31    24.61    25.98    27.38    28.80    30.30    31.94    
 33.66    35.43    37.37    39.34    41.42    43.55    45.87    48.25    50.70    53.21    
 55.80    58.40    61.11    63.89    66.67    69.48    72.33    75.29    78.32    81.39    
 84.60    87.99    91.55    95.21    99.01    102.99   107.10   111.27   115.55   120.04   
 124.70   129.30   133.69   137.95   142.33   146.42   150.06   153.21   155.95   158.44   
 160.50   162.28   163.67   164.49   164.62   164.13   163.00   161.16   158.78   156.02   
 152.66   148.71   144.63   140.39   136.03   130.90   125.56   119.94   114.36   108.58   
 101.65   
