IESNA:LM-63-2002
[TEST] 1
[TESTLAB] AOK
[TESTDATE] 2022-05-23
[ISSUEDATE] 2022-05-23 15:21:36
[NEARFIELD] 
[LAMPPOSITION] 0,0
[OTHER] EVERFINE GO-2000A_V1 SYSTEM
[MANUFAC] AOK
[LUMCAT] A
[LUMINAIRE] AOK-400WiSF-HV-S35-00-5070-15D-P
[LAMPCAT] B
[LAMP] 5050
[BALLAST] E
[BALLASTCAT] F
[OTHER] 
[OTHER] Gamma(deg)    Fz(lm)      Ft(lm)     %Lum    %Lamp
[OTHER]   0- 10     24258.53    24258.53    46.50    46.50
[OTHER]  10- 20     12593.49    36852.02    70.65    70.65
[OTHER]  20- 30      4768.60    41620.62    79.79    79.79
[OTHER]  30- 40      3028.13    44648.75    85.59    85.59
[OTHER]  40- 50      2429.29    47078.03    90.25    90.25
[OTHER]  50- 60      2033.93    49111.97    94.15    94.15
[OTHER]  60- 70      1463.27    50575.24    96.95    96.95
[OTHER]  70- 80       736.40    51311.64    98.37    98.37
[OTHER]  80- 90       285.80    51597.45    98.91    98.91
[OTHER]  90-100       147.41    51744.86    99.20    99.20
[OTHER] 100-110       104.43    51849.29    99.40    99.40
[OTHER] 110-120        85.53    51934.82    99.56    99.56
[OTHER] 120-130        65.04    51999.86    99.69    99.69
[OTHER] 130-140        45.70    52045.56    99.77    99.77
[OTHER] 140-150        33.28    52078.84    99.84    99.84
[OTHER] 150-160        37.61    52116.44    99.91    99.91
[OTHER] 160-170        35.37    52151.82    99.98    99.98
[OTHER] 170-180        12.05    52163.87   100.00   100.00
[OTHER] 
TILT=NONE
1 52164 1 181 25 1 2 0.150 0.200 0.000
1.000 1 408.32
0.0    1.0    2.0    3.0    4.0    5.0    6.0    7.0    8.0    9.0    
 10.0   11.0   12.0   13.0   14.0   15.0   16.0   17.0   18.0   19.0   
 20.0   21.0   22.0   23.0   24.0   25.0   26.0   27.0   28.0   29.0   
 30.0   31.0   32.0   33.0   34.0   35.0   36.0   37.0   38.0   39.0   
 40.0   41.0   42.0   43.0   44.0   45.0   46.0   47.0   48.0   49.0   
 50.0   51.0   52.0   53.0   54.0   55.0   56.0   57.0   58.0   59.0   
 60.0   61.0   62.0   63.0   64.0   65.0   66.0   67.0   68.0   69.0   
 70.0   71.0   72.0   73.0   74.0   75.0   76.0   77.0   78.0   79.0   
 80.0   81.0   82.0   83.0   84.0   85.0   86.0   87.0   88.0   89.0   
 90.0   91.0   92.0   93.0   94.0   95.0   96.0   97.0   98.0   99.0   
 100.0  101.0  102.0  103.0  104.0  105.0  106.0  107.0  108.0  109.0  
 110.0  111.0  112.0  113.0  114.0  115.0  116.0  117.0  118.0  119.0  
 120.0  121.0  122.0  123.0  124.0  125.0  126.0  127.0  128.0  129.0  
 130.0  131.0  132.0  133.0  134.0  135.0  136.0  137.0  138.0  139.0  
 140.0  141.0  142.0  143.0  144.0  145.0  146.0  147.0  148.0  149.0  
 150.0  151.0  152.0  153.0  154.0  155.0  156.0  157.0  158.0  159.0  
 160.0  161.0  162.0  163.0  164.0  165.0  166.0  167.0  168.0  169.0  
 170.0  171.0  172.0  173.0  174.0  175.0  176.0  177.0  178.0  179.0  
 180.0  
0.0    15.0   30.0   45.0   60.0   75.0   90.0   105.0  120.0  135.0  
 150.0  165.0  180.0  195.0  210.0  225.0  240.0  255.0  270.0  285.0  
 300.0  315.0  330.0  345.0  360.0  
380740.66 380320.22 379089.42 376505.00 369672.31 315962.08 266487.28 221455.51 164825.94 119038.01 
 84137.65 49362.81 26462.70 4505.36  461.24   297.21   171.63   46.05    32.48    25.35    
 21.84    18.44    15.89    14.01    12.51    11.13    9.96     8.94     8.25     7.92     
 8.13     8.35     8.35     7.94     7.47     7.08     6.33     5.89     5.63     5.54     
 5.52     5.21     4.90     4.50     4.16     3.76     3.60     3.50     3.33     3.15     
 2.88     2.76     2.71     2.70     2.64     2.63     2.61     2.61     2.54     2.51     
 2.49     2.48     2.48     2.47     2.47     2.46     2.46     2.45     2.45     2.45     
 2.45     2.46     2.46     2.46     2.47     2.47     2.47     2.47     2.48     2.48     
 2.48     2.48     2.49     2.55     2.69     2.87     3.00     3.14     3.20     3.26     
 3.33     3.42     3.54     3.62     3.68     3.72     3.81     3.90     4.05     4.21     
 4.41     4.62     4.85     5.12     5.41     5.71     6.03     6.34     6.66     6.98     
 7.28     7.56     7.82     8.08     8.35     8.64     8.95     9.27     9.63     10.05    
 10.47    10.91    11.36    11.84    12.34    12.87    13.46    14.09    14.75    15.45    
 16.16    16.91    17.70    18.54    19.42    20.35    21.38    22.51    23.77    25.18    
 26.72    28.43    30.45    32.73    35.39    38.48    42.07    46.18    50.97    56.99    
 64.26    72.74    82.41    93.04    105.20   118.10   131.09   143.86   157.02   170.34   
 182.80   194.32   205.21   214.20   220.62   224.58   225.99   225.07   222.01   217.15   
 210.98   203.91   196.06   187.89   179.38   170.63   161.81   152.38   142.25   131.10   
 119.62   
380740.66 380448.38 378757.85 376131.43 370701.94 332681.57 281564.85 230448.16 179271.67 120330.80 
 87845.01 52211.43 39366.49 26521.57 13676.63 947.91   795.44   569.61   343.78   119.43   
 93.74    91.22    78.70    55.03    68.26    60.57    36.20    21.57    15.95    12.53    
 10.21    8.82     8.03     7.46     6.62     5.30     4.89     4.77     4.63     4.49     
 4.29     4.25     4.64     4.66     4.64     4.61     4.45     4.37     4.20     4.05     
 3.89     3.80     3.65     3.55     3.50     3.45     3.37     3.30     3.23     3.15     
 3.04     2.91     2.82     2.73     2.67     2.60     2.53     2.45     2.37     2.31     
 2.25     2.21     2.17     2.13     2.09     2.05     2.05     2.04     2.04     2.03     
 2.03     2.05     2.08     2.12     2.18     2.25     2.32     2.40     2.49     2.59     
 2.69     2.80     2.90     3.02     3.15     3.28     3.42     3.57     3.74     3.93     
 4.14     4.36     4.58     4.82     5.08     5.35     5.63     5.91     6.21     6.51     
 6.82     7.15     7.46     7.76     8.07     8.40     8.76     9.13     9.53     9.92     
 10.35    10.83    11.33    11.83    12.34    12.88    13.46    14.07    14.71    15.38    
 16.10    16.84    17.62    18.43    19.30    20.26    21.33    22.47    23.71    25.10    
 26.70    28.45    30.42    32.71    35.32    38.37    41.86    45.96    50.74    56.68    
 63.67    72.07    81.65    92.49    104.31   116.81   129.91   142.83   156.09   169.21   
 181.76   193.89   204.67   213.69   220.33   224.41   225.85   225.05   222.10   217.42   
 211.60   204.73   197.13   189.05   180.69   172.24   163.35   153.73   142.58   130.96   
 119.62   
380740.66 380076.58 377647.79 374405.95 367859.26 351946.87 294013.23 237886.82 183692.38 131543.44 
 96641.74 61941.04 37226.06 27258.53 16205.10 8744.47  1321.43  972.99   714.63   533.29   
 366.18   194.98   129.39   107.35   85.78    75.17    62.74    51.14    44.65    38.28    
 33.63    28.40    24.23    21.75    19.78    17.86    15.69    13.39    11.12    10.45    
 10.20    10.14    9.57     8.99     8.65     8.44     7.59     7.02     6.72     6.30     
 5.78     5.40     4.88     4.25     3.88     3.73     3.58     3.42     3.23     3.02     
 2.87     2.72     2.59     2.49     2.41     2.34     2.27     2.20     2.15     2.10     
 2.07     2.04     2.02     2.00     1.98     1.97     1.95     1.94     1.92     1.91     
 1.91     1.91     1.93     1.99     2.05     2.13     2.21     2.30     2.41     2.52     
 2.64     2.77     2.90     3.05     3.21     3.38     3.55     3.72     3.90     4.08     
 4.28     4.47     4.67     4.89     5.11     5.33     5.56     5.81     6.07     6.35     
 6.63     6.93     7.24     7.55     7.88     8.22     8.57     8.93     9.31     9.69     
 10.10    10.53    10.97    11.44    11.90    12.38    12.87    13.43    14.03    14.66    
 15.32    16.03    16.82    17.68    18.60    19.62    20.68    21.94    23.32    24.83    
 26.49    28.36    30.51    32.90    35.64    38.82    42.55    46.85    51.94    58.22    
 65.69    74.25    83.82    94.29    106.24   118.96   131.93   144.72   158.12   171.69   
 184.48   195.69   205.58   213.78   219.47   222.86   224.00   222.85   219.95   215.45   
 209.55   202.78   195.22   187.20   178.83   170.34   160.79   150.36   139.51   128.38   
 119.62   
380740.66 380039.33 377173.32 372725.47 365000.47 347267.97 319112.56 258751.13 198472.31 149252.38 
 106773.41 77889.04 51352.53 37366.03 27427.74 17551.16 14334.47 9237.66  6463.98  3690.30  
 936.17   725.49   473.89   374.84   275.80   177.19   128.00   96.59    74.76    61.64    
 52.52    45.20    39.39    34.78    31.22    28.28    25.56    23.31    21.32    19.51    
 17.92    16.32    14.52    12.15    10.30    9.47     9.11     8.65     8.25     7.83     
 7.37     6.92     6.46     6.00     5.56     5.21     4.94     4.71     4.48     4.27     
 4.07     3.89     3.71     3.54     3.40     3.28     3.17     3.05     2.93     2.81     
 2.68     2.54     2.43     2.31     2.22     2.14     2.05     1.98     1.93     1.87     
 1.81     1.81     1.81     1.84     1.90     1.97     2.06     2.15     2.26     2.37     
 2.49     2.62     2.75     2.90     3.04     3.21     3.37     3.53     3.71     3.89     
 4.09     4.28     4.48     4.70     4.92     5.15     5.39     5.63     5.88     6.14     
 6.41     6.69     6.99     7.27     7.58     7.88     8.20     8.53     8.87     9.21     
 9.57     9.92     10.31    10.70    11.10    11.52    11.99    12.48    12.99    13.53    
 14.10    14.73    15.44    16.19    17.02    17.93    19.01    20.17    21.44    22.86    
 24.56    26.39    28.49    30.89    33.64    36.89    40.68    45.20    50.49    56.90    
 64.31    72.83    82.39    93.01    104.74   117.04   130.21   143.26   156.67   169.58   
 181.63   192.54   201.87   209.58   215.04   218.41   219.70   218.96   216.31   212.04   
 207.48   201.58   194.25   185.58   176.94   168.66   159.55   149.62   139.67   129.63   
 119.62   
380740.66 379391.50 375833.88 368987.35 354538.85 330000.03 294484.60 253704.01 207413.04 163918.99 
 122646.81 93193.11 63874.09 49635.70 37742.28 30221.81 24088.83 16972.20 13425.15 10887.86 
 8362.38  5836.89  4745.08  3117.48  2372.74  1697.46  1108.68  520.79   407.63   300.58   
 214.31   156.22   130.87   105.90   80.94    68.46    58.17    50.33    43.40    37.91    
 33.22    29.12    25.92    23.20    20.99    19.02    17.29    15.86    14.65    13.38    
 12.14    10.91    9.42     7.79     7.10     6.84     6.56     6.32     6.09     5.85     
 5.63     5.45     5.28     5.10     4.95     4.81     4.68     4.57     4.47     4.38     
 4.29     4.19     4.08     3.95     3.79     3.62     3.44     3.25     3.04     2.81     
 2.59     2.30     2.09     2.05     2.04     2.11     2.19     2.28     2.37     2.48     
 2.59     2.72     2.85     2.99     3.15     3.30     3.47     3.64     3.82     4.01     
 4.21     4.41     4.62     4.85     5.08     5.31     5.54     5.80     6.06     6.32     
 6.59     6.86     7.14     7.43     7.72     8.02     8.32     8.63     8.95     9.28     
 9.60     9.94     10.29    10.64    11.00    11.35    11.73    12.14    12.57    13.02    
 13.50    14.00    14.54    15.18    15.91    16.74    17.66    18.70    19.87    21.26    
 22.85    24.63    26.72    29.17    32.11    35.60    39.70    44.51    50.40    57.27    
 65.09    73.92    83.88    94.66    106.49   118.69   131.16   143.87   156.35   168.24   
 179.26   189.15   197.76   204.70   210.01   213.39   215.02   214.73   213.79   209.94   
 204.75   198.69   191.81   184.09   175.50   167.43   159.29   150.30   141.31   132.14   
 119.62   
380740.66 378951.79 374974.79 367083.15 349634.72 320703.33 283211.09 238439.70 193692.58 152245.54 
 119006.88 93961.54 74794.09 60793.47 49985.63 41420.98 34555.86 28796.28 24495.73 20198.95 
 16410.20 12834.81 10461.32 8785.80  7226.06  5969.44  4901.08  4186.94  3688.73  3262.52  
 2892.77  2523.02  2154.04  1882.42  1630.32  1405.99  1197.83  1027.43  867.39   722.39   
 595.23   477.97   377.01   314.01   251.00   188.21   151.07   114.88   89.22    70.84    
 56.74    46.26    38.95    33.19    29.18    25.75    22.83    20.55    18.60    17.12    
 15.79    14.82    13.90    13.10    12.33    11.34    10.52    9.66     9.29     9.21     
 9.12     9.06     8.94     8.80     8.68     8.58     8.43     8.27     8.07     7.68     
 7.06     6.15     5.00     3.02     1.71     1.73     1.79     1.86     1.93     2.01     
 2.10     2.19     2.29     2.41     2.53     2.66     2.80     2.95     3.10     3.27     
 3.44     3.61     3.80     3.99     4.19     4.39     4.61     4.84     5.07     5.31     
 5.56     5.82     6.10     6.38     6.66     6.95     7.24     7.55     7.85     8.16     
 8.47     8.80     9.14     9.47     9.78     10.12    10.47    10.84    11.20    11.59    
 11.98    12.40    12.88    13.40    13.95    14.58    15.31    16.17    17.17    18.32    
 19.72    21.40    23.34    25.72    28.60    32.15    36.39    41.50    47.46    54.68    
 62.69    71.79    81.59    92.26    103.69   115.45   127.53   139.38   151.21   162.47   
 172.79   182.25   190.42   197.55   203.22   207.55   210.32   212.67   212.24   210.31   
 207.04   202.66   197.13   190.71   182.68   174.97   167.28   157.82   147.80   138.31   
 119.62   
380740.66 379530.89 375902.51 368667.19 352906.75 324804.74 287689.70 243053.21 198439.93 156161.54 
 121543.11 95985.14 77425.96 63443.94 52508.92 43367.49 36071.06 30370.73 26571.62 22772.50 
 18984.21 16232.61 13902.97 11932.72 10238.10 8819.68  7758.80  6989.04  6468.73  6050.97  
 5695.29  5378.20  5099.91  4828.90  4573.54  4339.67  4120.71  3927.72  3760.00  3594.42  
 3441.93  3294.47  3137.72  3001.05  2856.14  2717.55  2577.83  2438.10  2297.09  2168.97  
 2052.79  1937.22  1828.77  1726.48  1626.59  1534.29  1440.00  1350.05  1259.42  1170.07  
 1084.28  1001.68  922.17   846.03   770.67   697.86   627.43   561.29   497.92   439.86   
 383.62   331.60   284.27   244.85   205.51   172.81   144.96   121.76   102.93   86.96    
 73.31    62.58    52.32    43.57    35.59    6.14     2.66     1.28     1.00     0.93     
 0.88     0.83     0.84     0.85     0.86     0.86     0.87     0.88     0.90     0.91     
 0.92     0.94     0.96     0.99     1.01     1.03     1.07     1.10     1.14     1.17     
 1.21     1.25     1.30     1.34     1.39     1.44     1.46     1.51     1.56     1.61     
 1.66     1.71     1.77     1.82     1.87     1.93     1.99     2.05     2.11     2.19     
 2.27     2.35     2.45     2.55     2.67     2.81     2.96     3.15     3.36     3.61     
 3.92     4.28     4.72     5.30     5.92     6.70     7.58     8.57     9.67     10.95    
 12.29    13.72    15.28    17.01    18.86    20.83    22.97    25.17    27.48    29.78    
 32.12    34.46    36.83    39.20    41.62    44.12    46.67    49.41    53.02    55.34    
 58.71    62.00    65.72    70.15    74.52    80.66    88.29    96.51    105.30   115.03   
 119.62   
380740.66 379096.79 374847.02 366495.84 349125.45 320303.25 280276.95 235206.05 190283.56 150888.11 
 119225.27 98962.95 78798.29 65783.82 55379.65 47046.47 40441.39 35063.44 30652.43 26743.87 
 23301.98 20255.97 17440.65 15050.49 12906.88 11572.57 10244.67 8916.77  8174.29  7603.07  
 7162.42  6789.28  6469.95  6211.06  5977.72  5790.67  5630.24  5475.18  5334.46  5203.77  
 5078.74  4966.06  4853.11  4715.93  4585.68  4447.55  4305.39  4165.97  4024.98  3893.92  
 3779.55  3665.39  3557.97  3451.41  3340.89  3236.69  3134.92  3030.79  2928.63  2819.73  
 2713.56  2606.51  2500.35  2393.01  2286.05  2177.51  2071.74  1964.80  1851.09  1739.72  
 1627.96  1518.19  1404.37  1290.21  1173.67  1078.89  984.32   894.74   809.40   728.46   
 654.44   585.10   521.66   465.65   418.38   375.73   341.02   312.67   291.86   272.61   
 254.75   235.14   216.41   200.05   185.03   171.09   158.78   148.16   138.40   129.17   
 120.71   112.26   105.66   99.73    94.23    89.16    84.54    79.87    76.02    72.18    
 68.25    64.89    61.80    58.23    54.77    51.49    48.34    45.31    42.36    39.34    
 36.50    33.90    31.21    28.47    25.89    23.10    19.93    16.87    13.86    10.72    
 7.55     5.47     4.05     2.92     2.11     1.96     1.99     2.11     2.27     2.46     
 2.69     2.98     3.34     3.78     4.34     4.99     5.75     6.66     7.65     8.79     
 10.03    11.33    12.80    14.40    16.09    17.82    19.70    21.59    23.53    25.49    
 27.50    29.53    31.58    33.69    35.81    37.99    40.25    42.59    45.12    48.87    
 51.73    54.05    58.66    63.08    67.60    74.00    82.18    91.06    100.60   111.19   
 119.62   
380740.66 379325.99 375477.99 367890.71 352177.31 325286.27 287610.21 242427.19 197300.44 157734.19 
 127213.64 104948.07 87476.48 73708.37 63179.49 55044.35 48353.20 42604.07 38026.95 34239.16 
 30524.67 27305.87 24087.06 20876.20 18376.13 16209.50 14345.44 12691.91 11319.17 10194.35 
 9229.60  8425.32  7784.67  7321.96  6999.46  6746.15  6535.98  6348.80  6191.52  6045.90  
 5912.61  5782.02  5648.02  5526.28  5399.50  5283.75  5158.80  5028.64  4894.86  4756.40  
 4625.14  4498.63  4370.65  4252.41  4124.36  4002.27  3879.39  3756.44  3627.48  3493.72  
 3357.52  3216.14  3072.84  2934.80  2804.61  2671.28  2537.96  2404.58  2266.99  2127.89  
 1987.51  1844.68  1710.66  1587.88  1462.03  1337.17  1208.87  1095.71  989.17   889.63   
 797.41   709.10   633.80   567.40   509.02   459.69   421.05   390.41   365.08   344.25   
 325.00   304.65   285.56   268.08   252.79   239.14   225.52   214.56   204.06   194.75   
 186.77   179.45   172.87   166.57   161.07   155.75   151.43   146.94   142.83   139.16   
 135.80   132.37   129.10   126.10   123.31   120.39   117.64   114.94   112.30   109.67   
 107.13   104.72   102.30   99.85    97.44    94.88    92.35    89.70    86.95    84.25    
 81.39    78.62    75.95    73.11    70.14    67.27    63.99    60.45    57.28    54.19    
 50.82    47.26    43.79    41.01    37.69    34.01    27.65    11.64    8.62     7.77     
 8.13     9.47     10.95    12.60    14.34    16.20    18.19    20.27    22.42    24.62    
 26.79    28.94    31.13    33.30    35.41    37.47    39.50    41.54    43.52    45.69    
 48.07    51.12    55.04    59.13    63.50    69.88    77.90    87.15    97.57    108.63   
 119.62   
380740.66 378971.03 374975.80 367256.89 351858.79 325706.10 286813.57 240869.73 195764.72 158464.19 
 129072.01 111852.73 94737.75 77622.78 67573.92 59365.63 53048.39 47966.22 43324.77 39096.53 
 35025.57 31392.83 28023.77 24814.45 22027.82 19634.61 17555.76 15732.55 14102.82 12655.87 
 11496.29 10339.42 9182.55  8439.56  7907.72  7523.35  7228.82  6971.75  6736.37  6527.22  
 6352.60  6185.10  6034.02  5899.84  5776.58  5648.63  5519.04  5400.62  5286.28  5175.97  
 5054.03  4919.72  4776.92  4647.59  4519.19  4380.02  4235.97  4083.50  3923.77  3770.77  
 3617.02  3469.27  3314.38  3162.61  3017.25  2871.95  2725.85  2576.56  2418.45  2262.67  
 2108.90  1964.74  1823.43  1673.39  1529.24  1396.31  1266.68  1148.11  1029.65  911.18   
 819.61   733.47   654.16   583.53   528.72   484.12   446.36   412.78   384.43   364.39   
 345.01   324.18   304.41   288.09   273.04   260.88   250.63   242.04   234.49   227.72   
 221.35   215.79   210.63   206.17   201.83   197.93   194.77   191.82   189.17   186.53   
 184.32   182.19   180.02   177.99   176.17   174.22   172.35   170.28   168.03   165.52   
 163.43   160.92   158.80   156.20   154.07   151.86   149.40   146.80   144.20   141.48   
 138.70   135.76   132.64   129.26   125.57   121.88   118.29   114.57   111.04   107.11   
 102.90   98.70    94.67    90.59    86.61    83.21    79.96    74.34    69.05    67.02    
 63.22    59.79    55.29    51.97    49.12    27.68    21.83    21.70    23.08    24.49    
 26.42    28.98    31.67    34.44    37.21    39.75    41.89    43.93    45.86    47.58    
 49.20    50.91    53.05    55.87    59.68    65.20    72.73    82.30    92.87    104.39   
 119.62   
380740.66 379247.75 375991.02 369945.23 357573.77 332840.42 294546.11 247543.32 200630.67 162558.44 
 132886.23 111114.41 94759.17 81711.50 70635.79 62032.41 55307.55 49496.59 44482.28 40005.10 
 35775.58 31915.37 28352.90 25376.87 22407.29 20002.82 18003.53 16249.72 14724.44 13442.01 
 12335.70 11374.83 10599.78 10031.39 9567.32  9119.79  8723.39  8335.41  7985.08  7682.55  
 7411.00  7163.79  6932.81  6716.07  6523.80  6342.78  6169.88  6008.40  5834.92  5657.91  
 5485.81  5323.64  5159.83  4991.67  4821.21  4665.91  4509.07  4358.27  4211.85  4065.55  
 3928.82  3792.26  3636.38  3465.72  3291.58  3120.41  2934.19  2759.52  2584.86  2410.21  
 2237.23  2070.57  1908.21  1756.56  1597.54  1459.25  1319.70  1191.20  1074.82  966.24   
 867.83   776.50   692.53   627.65   573.95   528.61   489.40   452.97   425.25   404.85   
 384.81   363.41   342.27   322.17   306.00   292.41   282.66   274.65   268.52   263.75   
 259.76   256.07   253.08   250.74   248.75   247.41   246.41   245.50   244.99   244.69   
 244.64   244.73   244.91   245.03   244.64   244.24   243.41   241.74   238.31   234.88   
 231.44   227.12   222.32   217.48   212.62   207.85   203.27   198.86   194.64   190.45   
 186.54   182.65   178.46   174.36   170.07   165.71   161.11   156.14   151.34   146.10   
 140.35   134.34   128.60   122.38   117.40   112.53   108.12   103.87   100.87   98.14    
 95.11    90.63    85.71    82.43    80.18    77.34    73.96    68.92    65.85    50.32    
 29.63    30.94    32.78    35.36    38.43    41.69    44.71    47.49    49.71    51.49    
 53.04    54.34    55.58    57.16    59.70    63.69    69.86    78.68    89.44    101.45   
 119.62   
380740.66 379119.92 376018.94 370649.10 358726.32 332089.34 289899.99 240641.04 195664.67 157926.55 
 129708.06 112989.68 96369.68 79749.68 69403.91 60904.27 53953.41 48187.44 43440.25 39030.70 
 35098.42 31486.69 28142.66 25216.14 22775.68 20766.45 19168.22 17948.52 16945.46 16063.02 
 15252.83 14490.73 13784.40 13118.10 12475.87 11734.97 11151.21 10568.71 9995.76  9483.76  
 9021.61  8616.01  8238.58  7891.05  7562.22  7237.57  6948.23  6664.80  6407.48  6170.03  
 5957.39  5745.95  5581.37  5454.49  5333.57  5224.71  5147.63  5053.18  4940.54  4751.14  
 4513.40  4321.56  4104.32  3913.25  3689.60  3474.46  3263.40  3037.14  2802.34  2589.52  
 2388.51  2207.65  2023.44  1850.30  1687.69  1541.59  1401.26  1264.99  1154.23  1043.69  
 933.15   840.69   761.90   696.99   641.62   595.09   551.76   512.94   485.63   462.96   
 440.80   415.93   391.55   368.00   349.63   333.00   319.77   310.55   303.09   298.02   
 294.61   292.77   291.77   291.46   291.50   291.97   293.22   294.23   294.54   294.89   
 295.67   296.88   298.32   299.92   301.23   301.55   301.25   299.74   297.22   293.02   
 288.28   282.07   274.81   267.32   259.66   251.79   243.91   236.29   229.34   222.64   
 216.24   210.44   204.70   199.51   194.20   189.15   176.68   168.94   164.12   159.99   
 155.04   149.78   145.46   141.02   136.07   130.63   124.88   119.14   114.33   110.61   
 107.89   105.84   103.67   101.20   98.09    93.31    92.02    89.62    87.94    79.57    
 76.23    47.19    36.14    39.04    42.03    45.22    48.46    51.59    54.40    56.59    
 57.93    59.02    59.90    60.79    62.57    66.15    72.02    80.61    91.62    103.88   
 119.62   
380740.66 379408.29 376908.91 372563.11 362305.47 336778.68 296620.39 248653.06 200766.87 160862.86 
 131086.47 110079.63 93348.05 80136.60 69714.43 61066.26 53844.84 48060.38 43261.62 39031.19 
 35256.45 31917.18 29004.13 26400.43 24599.53 22807.79 21798.86 21089.86 20624.50 20156.39 
 19596.69 18885.48 18051.68 17074.82 16132.56 15132.64 14134.59 13160.23 12292.83 11501.42 
 10804.58 10153.29 9600.14  9132.40  8705.78  8339.41  7986.68  7635.75  7302.53  6977.04  
 6696.18  6465.44  6276.25  6148.49  6284.58  6688.98  6889.47  7198.02  7247.48  6984.14  
 6574.19  6088.75  5583.42  5151.49  4766.09  4293.60  3950.09  3524.35  3164.56  2864.06  
 2634.76  2405.76  2202.18  2023.23  1851.54  1688.57  1539.00  1392.28  1262.62  1142.81  
 1035.35  933.85   847.89   775.59   713.63   658.32   608.15   563.79   530.80   503.70   
 478.31   451.61   423.73   397.82   375.24   356.35   340.66   328.91   318.94   312.43   
 308.26   305.79   304.49   304.19   304.41   304.85   305.86   307.15   306.74   305.43   
 302.94   300.64   299.20   297.85   296.10   294.22   291.77   288.67   284.82   280.36   
 274.53   268.64   262.36   255.86   249.41   242.69   235.98   229.28   223.57   217.99   
 212.67   207.52   202.41   197.35   192.25   187.32   182.47   175.79   163.76   159.66   
 155.40   151.40   147.25   142.85   138.61   134.42   130.26   123.64   116.90   113.64   
 110.51   109.45   107.87   106.25   104.43   103.53   101.43   99.44    97.47    93.47    
 82.87    78.41    42.23    42.53    45.43    48.04    51.23    54.63    57.70    60.33    
 62.28    63.70    64.60    65.02    66.05    68.32    72.72    80.63    92.14    106.20   
 119.62   
380740.66 379312.76 376797.70 372286.63 360881.94 335099.98 293593.21 245306.31 198979.76 159341.18 
 130166.47 113273.09 96484.74 79696.39 69135.86 60427.93 53405.84 47764.25 42945.01 38728.40 
 34826.78 31293.01 28143.46 25330.65 23104.29 21391.04 20226.03 19428.94 18882.08 18472.48 
 18024.54 17413.60 16674.22 15905.91 15057.98 14209.38 13317.09 12436.37 11709.18 10983.13 
 10257.09 9639.25  9085.57  8604.46  8184.74  7804.99  7450.13  7101.10  6806.07  6528.79  
 6282.12  6063.12  5864.50  5688.98  5592.09  5600.50  5544.25  5433.52  5241.43  5018.48  
 4745.36  4537.67  4307.82  4101.04  3912.59  3662.37  3415.21  3160.04  2924.92  2712.51  
 2522.42  2332.91  2133.08  1951.10  1777.75  1622.97  1478.41  1339.18  1213.67  1103.24  
 992.94   893.46   810.54   741.12   682.43   631.93   585.11   543.60   512.70   487.66   
 463.71   437.82   412.08   386.22   366.34   347.34   332.53   320.79   311.51   304.37   
 298.37   293.73   290.01   286.56   283.49   280.31   277.69   274.85   271.32   267.30   
 263.11   259.05   255.24   251.49   247.82   244.36   240.61   236.51   232.45   227.70   
 223.24   219.04   214.63   210.30   206.19   202.22   198.29   194.14   190.13   186.15   
 182.26   178.29   174.40   170.60   166.71   162.95   156.38   148.78   145.21   142.11   
 139.06   135.96   132.51   128.97   125.43   121.89   119.08   115.74   109.49   103.04   
 98.80    101.25   100.48   98.93    96.85    94.89    93.63    92.10    90.31    83.78    
 80.11    46.16    43.00    45.52    47.93    51.34    54.91    58.24    61.27    63.87    
 65.94    67.54    68.61    69.28    70.22    72.24    76.14    82.94    92.78    104.72   
 119.62   
380740.66 379763.19 377491.24 373010.46 362749.25 339991.24 303635.31 257651.64 211716.02 170527.29 
 137308.88 113981.04 96546.79 82677.36 71274.87 62363.01 55268.40 49366.12 44111.49 39650.46 
 35729.87 31897.02 28482.03 25545.62 22616.80 20353.66 18489.09 16895.73 15543.61 14474.98 
 13632.07 12855.40 12169.90 11621.97 11148.85 10677.69 10167.87 9685.82  9241.65  8840.23  
 8454.82  8128.56  7808.99  7521.68  7241.85  6984.37  6747.68  6536.71  6324.84  6105.05  
 5895.86  5698.52  5518.38  5332.74  5148.62  4966.15  4787.81  4619.65  4462.41  4311.28  
 4166.42  4009.06  3847.48  3669.41  3489.41  3307.18  3113.69  2919.92  2736.63  2553.35  
 2370.27  2204.89  2039.85  1881.23  1720.75  1574.44  1431.20  1295.54  1173.05  1058.75  
 953.49   855.67   768.03   693.60   634.30   582.45   538.25   498.89   467.30   443.95   
 422.67   400.60   376.78   352.74   334.24   316.77   302.27   290.43   280.10   271.50   
 264.37   257.95   252.22   246.61   240.42   234.25   229.51   225.12   220.95   216.99   
 213.11   209.41   205.97   202.72   199.41   196.48   193.33   190.26   187.33   184.22   
 181.05   177.61   174.25   171.15   168.13   165.18   162.14   159.09   156.18   153.37   
 150.70   147.93   145.16   142.20   139.34   136.47   133.51   130.31   127.13   124.34   
 120.95   116.94   112.14   107.49   102.20   98.71    95.52    90.65    84.74    82.19    
 85.23    84.69    82.01    78.98    76.57    74.18    72.72    69.13    67.27    41.67    
 38.01    40.32    42.43    45.56    49.20    52.95    56.58    60.10    63.37    66.27    
 68.90    71.34    73.29    74.56    75.89    78.17    81.96    87.55    95.33    105.22   
 119.62   
380740.66 379790.04 377152.12 371511.10 359706.54 337626.61 303397.86 259818.63 214280.06 172943.84 
 139928.61 116426.45 98853.78 81330.08 70331.73 61420.56 54345.33 48623.72 43627.07 39233.84 
 35220.14 31357.08 27865.45 24615.88 21686.86 19190.58 17092.09 15280.49 13712.51 12393.42 
 11438.22 10486.44 9534.67  8943.47  8505.94  8165.35  7873.59  7621.38  7399.57  7199.54  
 7008.60  6819.35  6643.82  6490.21  6346.87  6208.06  6045.08  5898.85  5753.56  5605.85  
 5454.10  5291.43  5130.66  4984.43  4845.60  4691.90  4527.99  4361.16  4188.66  4017.73  
 3855.29  3691.75  3532.18  3370.64  3212.71  3061.27  2911.49  2760.93  2604.31  2438.35  
 2277.15  2118.02  1971.42  1818.88  1671.11  1532.25  1397.92  1257.17  1145.23  1033.54  
 921.84   829.59   743.06   665.57   598.86   546.24   502.78   466.48   433.54   409.80   
 388.71   366.68   345.77   324.61   305.49   289.60   275.83   264.50   254.19   244.77   
 235.69   228.06   221.22   214.42   208.20   202.37   197.38   192.43   187.87   183.44   
 179.37   175.55   171.96   168.58   165.47   162.49   159.86   157.10   154.43   151.59   
 149.17   146.59   143.96   141.42   139.14   136.68   134.36   131.95   129.35   126.75   
 124.15   121.28   118.72   115.99   113.45   110.72   107.49   104.48   101.35   97.94    
 93.90    90.27    86.28    81.87    75.27    63.22    63.24    61.12    60.56    57.68    
 53.91    51.27    46.49    44.16    37.14    24.53    24.73    28.30    30.93    33.50    
 37.01    40.94    44.82    48.59    52.18    55.57    58.74    61.79    64.49    66.92    
 69.26    71.63    74.05    76.24    78.56    81.97    86.73    92.86    100.26   109.12   
 119.62   
380740.66 380356.80 378028.05 372608.56 361396.70 341366.05 312149.02 269982.37 227815.74 185695.52 
 148074.61 119473.80 97567.88 80761.90 67998.46 58276.66 50668.00 44639.73 39527.63 35257.37 
 31422.16 27675.51 24394.10 21118.29 18345.56 16005.74 14086.70 12453.08 11139.03 10134.81 
 9339.53  8692.90  8153.86  7716.65  7409.46  7153.88  6935.31  6745.12  6570.09  6416.19  
 6276.68  6129.62  5993.21  5870.50  5747.52  5636.02  5504.16  5355.26  5196.74  5042.80  
 4900.99  4763.29  4631.58  4496.69  4369.09  4241.10  4113.59  3993.77  3875.87  3749.81  
 3614.76  3470.02  3322.43  3173.00  3037.20  2899.43  2762.43  2622.46  2482.48  2342.09  
 2198.35  2053.20  1911.26  1775.51  1643.03  1515.54  1383.87  1255.43  1141.88  1034.65  
 930.84   833.16   743.99   666.84   601.15   543.30   491.99   452.98   422.49   397.72   
 378.71   359.55   338.33   318.78   301.25   285.55   271.47   257.52   244.14   230.80   
 220.24   209.76   200.58   191.85   184.22   177.07   170.53   164.46   158.93   154.15   
 149.62   145.71   141.60   137.75   133.72   130.03   126.78   123.58   120.43   117.23   
 114.32   111.18   107.81   104.71   102.23   99.00    96.05    92.79    89.79    86.71    
 82.74    79.26    75.96    72.47    68.94    64.69    60.52    55.93    53.06    49.52    
 45.93    43.81    41.19    36.90    32.71    28.28    14.32    9.54     8.21     9.09     
 10.63    12.41    14.46    16.74    19.25    22.06    25.11    28.32    31.77    35.33    
 38.99    42.61    46.23    49.76    53.22    56.57    59.68    62.49    65.12    67.62    
 70.14    72.61    75.00    77.87    81.26    85.59    90.90    97.17    104.64   112.98   
 119.62   
380740.66 380316.31 377917.78 372229.65 361204.51 341485.07 312962.38 274549.31 230461.01 186519.80 
 148084.39 116479.71 95643.76 74897.46 61139.74 50613.34 42679.20 36418.57 31580.08 27380.55 
 23935.94 20860.85 18068.04 15417.19 13174.31 11802.67 10437.91 9073.16  8391.34  7888.31  
 7496.38  7179.40  6882.08  6627.37  6416.27  6237.88  6072.69  5925.01  5797.22  5678.11  
 5575.64  5480.20  5381.18  5262.34  5137.26  4990.30  4818.50  4642.85  4475.26  4322.70  
 4173.50  4038.04  3911.59  3787.26  3660.92  3532.94  3413.04  3297.65  3183.91  3072.62  
 2953.66  2836.17  2723.22  2611.12  2490.95  2374.75  2261.81  2152.54  2035.62  1920.66  
 1802.08  1691.56  1578.17  1463.64  1347.89  1238.19  1135.96  1033.80  942.38   855.02   
 773.74   696.64   623.20   558.62   500.33   451.13   406.50   369.70   341.41   319.76   
 300.25   284.43   265.45   249.98   232.48   217.19   204.22   191.36   178.07   165.99   
 154.53   144.47   135.12   127.03   118.96   110.89   104.60   98.46    93.35    88.27    
 83.35    79.12    75.09    70.63    66.66    62.69    58.92    55.33    51.49    48.04    
 44.51    41.09    37.58    34.31    31.10    28.01    24.53    20.89    16.87    12.85    
 9.40     6.63     4.78     3.68     3.29     3.36     3.55     3.78     4.03     4.33     
 4.66     5.05     5.51     6.07     6.72     7.54     8.52     9.64     10.93    12.42    
 14.08    15.91    17.93    20.20    22.68    25.31    28.17    31.18    34.27    37.48    
 40.73    44.05    47.32    50.70    53.99    57.22    60.41    63.63    66.67    69.50    
 72.40    75.35    78.46    81.76    85.75    90.48    96.25    103.13   110.83   119.35   
 119.62   
380740.66 380285.73 378057.58 373547.69 363980.08 346601.75 318118.85 281006.96 236311.04 190277.37 
 148515.58 113625.28 90812.14 68133.04 54601.52 44161.99 35971.52 29862.62 24958.91 21295.87 
 18508.18 15870.97 13550.88 11717.50 10288.94 8864.77  7895.51  7173.73  6620.47  6233.01  
 5898.91  5587.53  5301.68  5043.76  4820.52  4624.53  4432.00  4249.77  4074.06  3925.15  
 3773.83  3632.32  3481.47  3328.14  3172.02  3021.00  2856.60  2701.54  2552.12  2403.15  
 2263.26  2134.91  2020.52  1895.25  1786.42  1683.72  1584.63  1489.53  1397.64  1306.18  
 1217.49  1132.13  1046.81  966.13   887.72   812.48   738.34   663.66   597.00   529.81   
 470.47   412.49   358.04   310.15   266.96   228.08   193.33   161.48   135.23   114.22   
 93.26    76.45    62.51    51.41    43.51    36.44    11.38    6.37     3.19     2.09     
 1.97     1.96     1.94     1.94     1.99     2.05     2.12     2.20     2.28     2.37     
 2.46     2.56     2.66     2.77     2.89     3.00     3.13     3.25     3.38     3.51     
 3.66     3.82     3.98     4.15     4.34     4.54     4.74     4.95     5.18     5.41     
 5.65     5.90     6.16     6.42     6.68     6.94     7.22     7.49     7.78     8.08     
 8.38     8.69     9.02     9.40     9.80     10.29    10.82    11.43    12.16    13.06    
 14.12    15.45    17.07    19.00    21.31    24.15    27.71    32.05    37.33    43.56    
 50.91    59.06    67.95    77.63    88.40    99.53    110.79   122.02   133.21   144.58   
 155.13   164.62   173.30   181.24   187.75   192.90   196.94   199.46   200.46   199.82   
 197.71   194.20   189.52   183.87   177.42   170.17   162.01   153.25   144.23   134.71   
 119.62   
380740.66 380332.15 378381.40 374910.00 367927.31 354101.57 329253.00 294631.97 250049.41 205450.80 
 158857.70 121832.69 93347.93 70547.89 55364.86 44367.45 35443.17 29618.55 23793.93 17992.07 
 15251.27 12808.63 10572.65 8485.28  6876.78  5797.20  4848.60  4113.74  3569.42  3155.42  
 2840.95  2526.49  2212.52  1962.39  1739.46  1546.76  1387.29  1228.84  1051.85  902.74   
 768.78   643.01   532.69   434.54   353.77   294.51   235.24   176.17   138.28   111.10   
 91.96    75.66    64.29    55.55    47.95    41.01    36.45    32.79    29.83    27.33    
 25.03    23.19    21.83    20.68    19.70    18.87    18.02    17.05    16.08    15.24    
 14.88    14.75    14.84    14.87    15.04    15.26    15.46    15.60    15.63    15.56    
 15.12    14.06    12.02    8.68     4.67     1.76     1.68     1.74     1.81     1.88     
 1.97     2.05     2.14     2.25     2.37     2.49     2.61     2.74     2.87     3.02     
 3.17     3.32     3.47     3.64     3.81     3.98     4.16     4.34     4.53     4.73     
 4.94     5.15     5.38     5.59     5.83     6.08     6.34     6.61     6.87     7.14     
 7.42     7.69     7.98     8.27     8.56     8.84     9.15     9.46     9.77     10.10    
 10.46    10.84    11.25    11.75    12.28    12.87    13.57    14.37    15.30    16.40    
 17.69    19.20    20.95    23.07    25.54    28.55    32.13    36.51    41.62    47.86    
 54.93    63.02    71.91    81.66    92.19    103.04   114.36   125.56   136.86   147.74   
 157.89   167.24   175.53   182.86   188.93   193.85   197.41   199.62   200.40   199.58   
 197.36   193.91   189.32   183.66   177.29   170.22   161.85   152.72   143.16   133.14   
 119.62   
380740.66 380206.97 378397.04 375435.89 369794.61 358192.00 337102.56 302306.31 249912.33 189392.77 
 136224.10 107906.19 79871.11 51836.03 40224.44 29164.48 21794.91 17556.52 14089.16 11459.02 
 8839.01  6219.00  4280.38  3272.09  2000.48  1514.90  1037.80  560.69   413.23   321.53   
 237.91   188.09   157.26   134.17   116.87   99.64    86.04    74.85    66.16    58.60    
 51.92    46.25    41.14    37.17    33.25    30.34    27.80    25.78    23.82    22.19    
 20.67    18.78    16.70    14.79    12.81    11.15    10.05    9.21     8.50     7.95     
 7.30     6.84     6.66     6.55     6.41     6.31     6.26     6.17     6.07     5.99     
 5.92     5.84     5.73     5.57     5.44     5.27     5.00     4.59     4.14     3.71     
 3.24     2.68     2.19     2.04     2.02     2.03     2.11     2.19     2.28     2.39     
 2.49     2.62     2.73     2.88     3.03     3.19     3.35     3.52     3.70     3.89     
 4.08     4.27     4.46     4.68     4.90     5.11     5.33     5.56     5.79     6.04     
 6.28     6.54     6.80     7.06     7.32     7.60     7.88     8.16     8.44     8.73     
 9.01     9.31     9.60     9.91     10.23    10.54    10.88    11.25    11.62    12.03    
 12.47    12.94    13.45    14.02    14.70    15.49    16.35    17.34    18.41    19.70    
 21.17    22.84    24.82    27.09    29.69    32.77    36.50    40.87    46.02    52.25    
 59.53    67.67    76.65    86.31    97.33    108.92   120.58   132.15   143.64   155.28   
 166.00   175.45   183.80   191.14   196.78   200.81   203.59   204.48   203.65   201.43   
 198.20   193.84   188.65   182.88   176.47   169.00   160.55   151.53   141.88   131.48   
 119.62   
380740.66 380296.21 378976.69 376691.62 372118.86 362631.77 324823.87 272589.14 220354.45 168181.74 
 124006.56 79772.77 54798.44 41390.54 30680.90 20000.11 12487.73 9722.95  5586.48  1478.06  
 1138.92  781.91   505.08   342.94   279.75   216.57   153.75   131.18   100.78   80.31    
 68.43    59.71    53.11    47.68    43.26    39.26    35.73    32.76    29.64    27.39    
 25.34    23.19    20.99    18.99    16.72    14.33    12.44    10.98    9.82     8.98     
 8.27     7.60     6.90     6.30     5.87     5.52     5.23     4.99     4.77     4.57     
 4.33     4.15     3.98     3.83     3.71     3.58     3.45     3.29     3.19     3.11     
 3.04     2.95     2.83     2.71     2.58     2.46     2.36     2.27     2.18     2.10     
 2.04     2.04     2.06     2.11     2.16     2.22     2.31     2.39     2.48     2.58     
 2.69     2.79     2.90     3.03     3.16     3.31     3.46     3.62     3.78     3.96     
 4.14     4.32     4.52     4.72     4.93     5.14     5.37     5.59     5.82     6.05     
 6.31     6.58     6.84     7.11     7.38     7.66     7.96     8.27     8.57     8.88     
 9.19     9.53     9.87     10.22    10.58    10.97    11.37    11.83    12.32    12.83    
 13.38    13.97    14.63    15.35    16.14    17.02    18.08    19.21    20.43    21.81    
 23.44    25.21    27.18    29.49    32.05    35.13    38.65    42.84    47.73    53.70    
 60.54    68.57    77.40    87.46    98.43    110.11   122.51   134.91   147.55   159.80   
 171.35   181.93   191.11   198.91   204.62   208.54   210.51   210.41   208.65   205.97   
 201.48   195.85   189.29   182.33   174.54   166.44   157.51   148.30   138.39   127.73   
 119.62   
380740.66 380166.12 379135.59 376760.79 371889.02 336342.66 282970.88 241254.38 195318.86 138942.33 
 106017.77 73368.35 40718.93 24257.24 16235.48 11231.95 6258.96  1285.97  965.60   703.30   
 408.87   247.20   234.43   136.36   122.95   105.89   88.77    71.65    71.25    51.60    
 44.84    39.68    33.53    31.48    27.07    25.35    22.64    20.44    17.91    15.73    
 13.46    12.16    10.89    10.30    9.81     9.31     8.48     7.90     7.91     7.34     
 7.06     6.57     6.00     5.53     4.69     4.27     4.13     3.98     3.83     3.66     
 3.49     3.35     3.21     3.06     2.93     2.82     2.71     2.61     2.52     2.43     
 2.35     2.27     2.21     2.14     2.09     2.05     2.01     1.99     1.96     1.94     
 1.94     1.95     1.97     2.02     2.08     2.15     2.23     2.31     2.42     2.52     
 2.63     2.74     2.86     2.99     3.14     3.29     3.44     3.61     3.78     3.97     
 4.17     4.36     4.57     4.78     5.01     5.25     5.48     5.74     6.00     6.28     
 6.56     6.85     7.15     7.47     7.78     8.10     8.43     8.76     9.11     9.47     
 9.81     10.18    10.57    10.97    11.38    11.79    12.25    12.75    13.25    13.81    
 14.42    15.10    15.85    16.69    17.62    18.65    19.76    21.06    22.48    24.04    
 25.72    27.58    29.71    32.07    34.77    37.86    41.45    45.57    50.41    56.37    
 63.43    71.40    80.38    90.60    102.00   113.99   126.32   138.89   152.33   165.36   
 177.37   188.55   198.52   206.35   212.22   215.81   217.14   216.25   213.61   209.34   
 203.78   197.13   189.72   181.71   173.38   164.66   155.45   145.71   135.34   124.65   
 119.62   
380740.66 380495.08 379526.19 377271.32 372390.88 323354.30 275315.67 227277.05 179186.46 124313.96 
 87841.47 53960.05 40686.98 27413.92 14140.86 989.28   979.76   462.08   329.93   383.20   
 280.41   177.98   122.66   118.71   70.82    36.75    26.63    21.31    18.42    16.38    
 15.19    14.31    13.67    12.87    12.05    11.05    9.70     8.39     7.30     6.48     
 5.80     5.31     4.87     4.46     4.05     3.76     3.56     3.46     3.34     3.20     
 3.08     2.97     2.87     2.79     2.70     2.64     2.57     2.51     2.44     2.40     
 2.34     2.29     2.28     2.23     2.21     2.17     2.13     2.10     2.07     2.04     
 2.02     1.99     1.97     1.96     1.96     1.95     1.94     1.94     1.93     1.94     
 1.96     1.98     2.02     2.07     2.13     2.20     2.26     2.33     2.40     2.48     
 2.58     2.67     2.77     2.88     3.00     3.14     3.29     3.44     3.60     3.80     
 4.01     4.22     4.45     4.70     4.97     5.25     5.53     5.82     6.13     6.43     
 6.74     7.06     7.38     7.69     8.00     8.33     8.67     9.03     9.39     9.75     
 10.14    10.55    10.97    11.42    11.89    12.39    12.91    13.46    14.01    14.59    
 15.22    15.92    16.68    17.51    18.42    19.45    20.55    21.77    23.08    24.54    
 26.21    28.04    30.07    32.39    35.00    38.08    41.56    45.55    50.27    56.06    
 62.90    71.09    80.42    90.98    102.65   114.85   127.74   140.51   153.89   166.97   
 179.60   191.80   202.42   211.37   217.96   222.21   224.04   223.48   220.77   216.35   
 210.65   203.79   196.36   187.93   179.05   170.10   160.50   150.54   140.02   128.96   
 119.62   
380740.66 380320.22 379089.42 376505.00 369672.31 315962.08 266487.28 221455.51 164825.94 119038.01 
 84137.65 49362.81 26462.70 4505.36  461.24   297.21   171.63   46.05    32.48    25.35    
 21.84    18.44    15.89    14.01    12.51    11.13    9.96     8.94     8.25     7.92     
 8.13     8.35     8.35     7.94     7.47     7.08     6.33     5.89     5.63     5.54     
 5.52     5.21     4.90     4.50     4.16     3.76     3.60     3.50     3.33     3.15     
 2.88     2.76     2.71     2.70     2.64     2.63     2.61     2.61     2.54     2.51     
 2.49     2.48     2.48     2.47     2.47     2.46     2.46     2.45     2.45     2.45     
 2.45     2.46     2.46     2.46     2.47     2.47     2.47     2.47     2.48     2.48     
 2.48     2.48     2.49     2.55     2.69     2.87     3.00     3.14     3.20     3.26     
 3.33     3.42     3.54     3.62     3.68     3.72     3.81     3.90     4.05     4.21     
 4.41     4.62     4.85     5.12     5.41     5.71     6.03     6.34     6.66     6.98     
 7.28     7.56     7.82     8.08     8.35     8.64     8.95     9.27     9.63     10.05    
 10.47    10.91    11.36    11.84    12.34    12.87    13.46    14.09    14.75    15.45    
 16.16    16.91    17.70    18.54    19.42    20.35    21.38    22.51    23.77    25.18    
 26.72    28.43    30.45    32.73    35.39    38.48    42.07    46.18    50.97    56.99    
 64.26    72.74    82.41    93.04    105.20   118.10   131.09   143.86   157.02   170.34   
 182.80   194.32   205.21   214.20   220.62   224.58   225.99   225.07   222.01   217.15   
 210.98   203.91   196.06   187.89   179.38   170.63   161.81   152.38   142.25   131.10   
 119.62   
