IESNA:LM-63-2002
[TEST] 1
[TESTLAB] AOK
[TESTDATE] 2022-06-06
[ISSUEDATE] 2022-06-06 10:41:11
[NEARFIELD] 
[LAMPPOSITION] 0,0
[OTHER] EVERFINE GO-2000A_V1 SYSTEM
[MANUFAC] AOK
[LUMCAT] A
[LUMINAIRE] AOK-1200WiSF-HV-S35-00-5070-15D-P
[LAMPCAT] B
[LAMP] 3535
[BALLAST] E
[BALLASTCAT] F
[OTHER] 
[OTHER] Gamma(deg)    Fz(lm)      Ft(lm)     %Lum    %Lamp
[OTHER]   0- 10     64804.14    64804.14    41.38    41.38
[OTHER]  10- 20     47129.27   111933.41    71.47    71.47
[OTHER]  20- 30     18323.01   130256.42    83.17    83.17
[OTHER]  30- 40      8617.31   138873.73    88.67    88.67
[OTHER]  40- 50      6258.54   145132.26    92.67    92.67
[OTHER]  50- 60      4902.70   150034.96    95.80    95.80
[OTHER]  60- 70      3319.53   153354.49    97.92    97.92
[OTHER]  70- 80      1656.56   155011.05    98.97    98.97
[OTHER]  80- 90       586.98   155598.03    99.35    99.35
[OTHER]  90-100       251.11   155849.14    99.51    99.51
[OTHER] 100-110       167.84   156016.98    99.62    99.62
[OTHER] 110-120       130.86   156147.84    99.70    99.70
[OTHER] 120-130       105.00   156252.84    99.77    99.77
[OTHER] 130-140        80.63   156333.47    99.82    99.82
[OTHER] 140-150        67.01   156400.48    99.86    99.86
[OTHER] 150-160        88.75   156489.23    99.92    99.92
[OTHER] 160-170        96.39   156585.62    99.98    99.98
[OTHER] 170-180        33.20   156618.82   100.00   100.00
[OTHER] 
TILT=NONE
1 1.5662e+005 1 181 25 1 2 0.150 0.200 0.000
1.000 1 1187.18
0.0    1.0    2.0    3.0    4.0    5.0    6.0    7.0    8.0    9.0    
 10.0   11.0   12.0   13.0   14.0   15.0   16.0   17.0   18.0   19.0   
 20.0   21.0   22.0   23.0   24.0   25.0   26.0   27.0   28.0   29.0   
 30.0   31.0   32.0   33.0   34.0   35.0   36.0   37.0   38.0   39.0   
 40.0   41.0   42.0   43.0   44.0   45.0   46.0   47.0   48.0   49.0   
 50.0   51.0   52.0   53.0   54.0   55.0   56.0   57.0   58.0   59.0   
 60.0   61.0   62.0   63.0   64.0   65.0   66.0   67.0   68.0   69.0   
 70.0   71.0   72.0   73.0   74.0   75.0   76.0   77.0   78.0   79.0   
 80.0   81.0   82.0   83.0   84.0   85.0   86.0   87.0   88.0   89.0   
 90.0   91.0   92.0   93.0   94.0   95.0   96.0   97.0   98.0   99.0   
 100.0  101.0  102.0  103.0  104.0  105.0  106.0  107.0  108.0  109.0  
 110.0  111.0  112.0  113.0  114.0  115.0  116.0  117.0  118.0  119.0  
 120.0  121.0  122.0  123.0  124.0  125.0  126.0  127.0  128.0  129.0  
 130.0  131.0  132.0  133.0  134.0  135.0  136.0  137.0  138.0  139.0  
 140.0  141.0  142.0  143.0  144.0  145.0  146.0  147.0  148.0  149.0  
 150.0  151.0  152.0  153.0  154.0  155.0  156.0  157.0  158.0  159.0  
 160.0  161.0  162.0  163.0  164.0  165.0  166.0  167.0  168.0  169.0  
 170.0  171.0  172.0  173.0  174.0  175.0  176.0  177.0  178.0  179.0  
 180.0  
0.0    15.0   30.0   45.0   60.0   75.0   90.0   105.0  120.0  135.0  
 150.0  165.0  180.0  195.0  210.0  225.0  240.0  255.0  270.0  285.0  
 300.0  315.0  330.0  345.0  360.0  
981038.31 979078.96 975494.05 965525.09 919278.58 815287.81 710073.60 592059.66 475606.16 355374.26 
 259218.99 180951.01 121014.58 103531.45 86509.74 74939.70 65246.25 56810.89 44125.59 33476.47 
 22701.07 14849.73 10136.08 5458.07  780.05   507.11   281.46   55.80    37.41    30.72    
 26.45    22.93    20.10    17.79    16.17    14.64    13.15    12.14    11.29    10.45    
 9.81     9.64     9.21     8.86     8.43     8.05     7.88     7.77     7.39     7.03     
 6.42     6.08     6.03     6.20     6.24     6.02     5.70     5.51     5.35     5.23     
 5.16     5.11     5.05     5.02     4.98     4.95     4.93     4.90     4.88     4.87     
 4.87     4.87     4.87     4.88     4.88     4.88     4.88     4.89     4.90     4.94     
 4.98     5.02     5.06     5.11     5.18     5.26     5.37     5.50     5.64     5.81     
 5.98     6.17     6.38     6.60     6.85     7.10     7.38     7.70     8.01     8.33     
 8.67     9.03     9.42     9.86     10.35    10.85    11.37    11.92    12.46    13.06    
 13.70    14.32    14.97    15.66    16.37    17.11    17.89    18.69    19.55    20.48    
 21.41    22.36    23.37    24.46    25.56    26.74    28.06    29.47    30.97    32.62    
 34.43    36.41    38.66    41.19    43.99    47.13    50.68    54.73    59.27    64.40    
 70.04    76.31    83.43    91.37    100.25   110.52   122.11   135.28   150.18   168.06   
 188.90   212.34   239.60   266.90   297.49   330.13   362.88   394.76   427.28   458.81   
 487.53   513.29   537.21   557.30   571.54   579.91   582.67   579.73   571.97   560.10   
 545.00   529.07   511.96   494.27   476.18   457.65   437.54   416.28   392.69   367.51   
 335.64   
981038.31 984719.29 983796.72 980175.93 968938.24 900736.20 801074.96 697622.36 583503.76 473621.96 
 353996.47 268896.56 183982.82 121362.22 101519.24 87350.30 76044.11 66580.29 58853.08 46400.97 
 37953.28 27380.65 16842.83 10582.25 7172.22  3762.18  382.53   313.38   244.24   175.22   
 119.78   98.57    83.48    64.56    58.57    52.48    42.67    34.73    27.33    23.05    
 19.97    17.56    15.56    14.08    12.78    11.93    11.17    10.77    10.69    10.41    
 10.01    9.54     8.75     7.93     7.59     7.39     7.46     7.46     7.46     7.46     
 7.45     7.30     7.00     6.66     6.39     6.21     6.09     6.01     5.92     5.83     
 5.74     5.65     5.55     5.48     5.40     5.31     5.20     5.10     5.02     4.95     
 4.89     4.83     4.83     4.86     4.91     4.99     5.08     5.19     5.30     5.44     
 5.59     5.76     5.94     6.14     6.39     6.66     6.94     7.18     7.45     7.75     
 8.11     8.49     8.90     9.36     9.86     10.27    10.74    11.25    11.79    12.32    
 12.86    13.44    14.04    14.70    15.38    16.09    16.84    17.62    18.40    19.24    
 20.12    21.11    22.12    23.14    24.19    25.32    26.55    27.88    29.32    30.87    
 32.57    34.41    36.50    38.79    41.32    44.13    47.37    50.97    54.90    59.35    
 64.48    70.08    76.27    83.21    91.00    99.93    109.94   122.55   135.20   150.95   
 168.64   189.43   211.84   237.86   266.24   296.22   328.54   360.43   393.50   425.64   
 456.61   485.66   512.74   537.08   556.43   570.61   578.81   581.32   578.60   571.17   
 560.36   546.97   532.21   516.32   499.42   481.88   462.88   442.45   419.97   395.45   
 335.64   
981038.31 987391.41 987580.71 985713.99 977855.14 955369.63 870305.88 771479.47 661098.56 541210.44 
 434800.29 330577.60 251216.83 179481.45 125571.24 104776.70 84325.33 73774.79 64990.71 57284.52 
 50624.59 41269.43 33265.03 24319.44 16077.01 11692.40 7349.12  3005.84  1396.07  899.85   
 417.16   282.01   201.03   161.04   132.66   104.40   76.15    62.08    52.23    44.23    
 37.31    32.41    28.30    25.12    22.93    20.86    19.41    18.08    17.10    16.46    
 15.94    15.53    15.37    15.02    14.05    12.76    11.06    9.83     9.68     9.66     
 9.61     9.64     9.60     9.46     9.30     9.13     8.91     8.69     8.47     8.27     
 8.02     7.77     7.50     7.18     6.84     6.54     6.20     5.85     5.53     5.24     
 4.99     4.79     4.62     4.57     4.57     4.65     4.75     4.87     5.02     5.18     
 5.37     5.57     5.79     6.04     6.31     6.59     6.90     7.23     7.56     7.90     
 8.28     8.68     9.08     9.55     10.11    10.45    10.96    11.46    11.97    12.48    
 12.99    13.59    14.18    14.83    15.52    16.20    16.91    17.64    18.44    19.26    
 20.12    20.99    21.92    22.90    23.94    25.04    26.23    27.52    28.96    30.48    
 32.11    33.91    35.87    38.04    40.52    43.24    46.25    49.57    53.22    57.32    
 61.89    67.07    72.73    79.08    86.27    94.57    104.09   114.88   127.17   141.87   
 159.08   178.56   200.02   223.60   252.42   281.31   311.77   342.96   375.93   408.91   
 440.71   470.89   499.56   524.23   544.91   560.64   571.18   576.43   576.58   572.33   
 564.62   554.22   541.76   527.54   511.80   494.36   475.05   454.52   431.81   406.42   
 335.64   
981038.31 990853.02 993488.55 991650.37 986690.97 974923.30 954199.57 888441.33 781391.84 659742.58 
 531231.14 417869.21 320151.42 252784.69 185667.07 146297.46 112072.81 92354.33 71251.68 62430.24 
 55114.69 48789.81 42872.00 37349.34 32248.67 26442.36 20653.18 16725.52 12299.93 8953.56  
 6159.91  4192.09  2889.34  1591.39  886.11   502.97   394.16   285.34   177.21   142.25   
 116.75   93.83    75.44    63.01    54.75    48.43    43.63    39.49    36.28    33.55    
 31.35    29.81    28.37    27.10    26.10    25.44    24.91    24.16    23.20    22.27    
 21.09    19.05    15.07    12.74    12.45    12.14    11.65    11.25    10.99    10.75    
 10.46    10.14    9.78     9.38     8.98     8.53     8.02     7.49     6.93     6.29     
 5.67     5.13     4.65     4.27     4.06     4.08     4.17     4.31     4.46     4.63     
 4.84     5.06     5.29     5.54     5.81     6.10     6.42     6.76     7.12     7.48     
 7.85     8.25     8.69     9.16     9.68     10.26    10.59    11.14    11.70    12.25    
 12.77    13.33    13.93    14.57    15.22    15.88    16.59    17.31    18.06    18.83    
 19.65    20.54    21.48    22.42    23.44    24.48    25.60    26.80    28.06    29.42    
 30.93    32.56    34.33    36.28    38.41    40.79    43.47    46.42    49.63    53.23    
 57.41    62.04    67.20    73.09    79.81    87.63    96.43    106.60   119.80   133.04   
 148.90   167.23   187.41   210.81   236.39   264.18   294.21   324.92   357.59   389.86   
 421.98   452.43   480.91   506.89   528.44   546.49   559.60   568.28   572.37   572.11   
 567.86   560.07   549.42   536.38   521.19   503.35   483.86   463.03   439.32   413.98   
 335.64   
981038.31 991607.28 995740.45 993426.96 986698.29 975727.72 954550.05 912320.21 839208.15 741706.31 
 615796.66 488422.48 382715.27 299463.65 232093.12 188332.68 150811.17 121437.46 102817.65 84330.81 
 68679.67 58576.84 48307.54 41568.92 34756.38 28263.22 23608.47 19864.28 16767.15 14241.32 
 12180.47 10589.23 9003.58  7836.82  6805.66  5762.81  4882.75  4027.90  3263.46  2505.27  
 1978.77  1501.21  1173.26  847.12   520.98   360.51   265.43   206.43   166.79   136.96   
 116.93   97.00    84.37    74.83    67.42    60.99    55.34    50.57    46.74    43.39    
 40.78    38.74    36.56    34.10    32.27    30.81    29.58    28.36    26.74    23.01    
 16.43    14.72    14.10    13.53    13.05    12.56    12.03    11.41    10.73    9.97     
 9.14     8.14     6.99     5.93     5.10     4.55     4.47     4.55     4.71     4.88     
 5.08     5.30     5.53     5.78     6.06     6.36     6.67     7.00     7.34     7.71     
 8.08     8.47     8.88     9.31     9.77     10.22    10.70    11.20    11.71    12.23    
 12.80    13.39    13.99    14.62    15.28    15.97    16.67    17.39    18.13    18.90    
 19.71    20.53    21.40    22.29    23.21    24.17    25.17    26.22    27.34    28.53    
 29.81    31.24    32.79    34.48    36.37    38.48    40.88    43.63    46.75    50.18    
 54.08    58.41    63.36    69.27    76.08    83.81    92.66    102.79   114.34   128.55   
 145.36   164.44   185.39   208.18   232.04   261.98   292.00   323.11   354.09   384.10   
 414.54   444.94   471.99   495.63   517.33   535.15   548.68   558.79   564.30   565.65   
 562.87   556.64   546.48   533.38   517.92   500.66   481.60   460.94   438.57   415.30   
 335.64   
981038.31 993324.53 999235.84 999065.96 993699.68 981781.26 957831.29 911577.34 834614.35 734816.58 
 623666.49 517062.49 417534.40 334756.54 278413.78 222254.74 186038.73 156401.24 132104.97 112360.99 
 95565.53 80845.49 67598.02 57901.16 49609.83 42183.77 35380.21 29835.29 26028.70 22231.05 
 19337.32 16862.26 15001.11 13484.16 12148.45 10986.48 9943.69  9064.00  8360.71  7710.54  
 7091.05  6568.36  6056.75  5611.22  5207.73  4840.04  4501.49  4189.00  3878.97  3568.10  
 3254.14  2920.55  2586.95  2253.10  1885.53  1522.22  1178.96  866.89   650.02   504.72   
 405.15   327.90   279.26   230.63   182.14   152.69   129.81   111.16   96.25    82.76    
 71.20    60.77    53.00    46.93    41.94    38.17    34.71    31.89    29.13    24.39    
 17.96    16.65    15.35    13.67    11.45    8.51     5.51     4.11     4.16     4.29     
 4.43     4.59     4.76     4.96     5.20     5.44     5.70     5.97     6.26     6.59     
 6.91     7.26     7.63     8.02     8.44     8.86     9.31     9.80     10.30    10.81    
 11.34    11.90    12.48    13.09    13.70    14.34    15.02    15.71    16.40    17.13    
 17.90    18.70    19.54    20.38    21.22    22.12    23.04    24.06    25.09    26.16    
 27.28    28.52    29.82    31.30    32.93    34.73    36.81    39.14    41.76    44.78    
 48.35    52.43    57.09    62.54    68.89    76.28    84.87    94.91    106.72   122.34   
 138.00   156.68   177.21   201.10   226.52   253.95   283.29   312.69   344.04   374.72   
 404.81   433.73   460.63   485.72   507.41   526.26   541.22   553.03   560.94   564.85   
 564.64   560.71   553.10   542.22   528.78   513.37   495.73   476.75   455.75   434.23   
 335.64   
981038.31 996393.30 1004295.22 1006625.58 1003857.83 994839.39 977143.47 939524.28 872941.05 776444.19 
 662481.46 547599.50 441393.34 349484.37 277898.62 231571.19 185435.10 154930.64 130044.55 110111.85 
 93513.77 79523.96 68461.96 59019.53 50910.11 43667.05 37450.86 31901.35 27589.93 24666.66 
 21753.53 19840.56 18288.40 16943.78 15839.83 14878.48 14025.65 13259.65 12576.86 11930.80 
 11368.78 10850.47 10349.55 9938.76  9563.45  9198.63  8855.17  8517.16  8158.65  7800.99  
 7451.21  7124.64  6802.27  6481.93  6163.50  5857.91  5578.62  5305.88  5040.19  4760.16  
 4488.89  4219.28  3960.99  3697.95  3448.91  3205.39  2971.11  2748.29  2530.84  2313.48  
 2105.23  1898.24  1707.66  1528.50  1360.80  1198.49  1043.36  893.73   760.76   642.59   
 534.22   435.57   353.15   294.14   235.13   176.38   137.46   103.46   71.76    39.84    
 13.53    3.66     2.41     1.87     1.83     1.77     1.64     1.48     1.49     1.52     
 1.54     1.57     1.63     1.67     1.72     1.79     1.85     1.93     2.02     2.11     
 2.20     2.30     2.41     2.54     2.66     2.78     2.95     3.10     3.24     3.36     
 3.49     3.62     3.77     3.90     4.05     4.21     4.37     4.55     4.73     4.92     
 5.12     5.33     5.57     5.83     6.13     6.46     6.83     7.30     7.83     8.40     
 9.08     9.86     10.76    11.86    13.09    14.60    16.39    18.44    20.88    23.70    
 26.88    30.34    34.18    38.31    42.76    47.49    52.54    58.02    63.90    69.92    
 76.24    82.80    89.36    96.16    102.86   109.68   116.46   124.70   132.07   139.89   
 147.84   156.20   164.89   173.91   183.31   193.34   204.53   216.96   231.45   246.92   
 335.64   
981038.31 995367.38 1002829.46 1004743.48 1001422.56 992325.86 972500.10 931352.27 861326.59 759854.39 
 645192.11 530869.67 432303.15 351669.79 287206.01 237002.73 198950.16 169692.30 145588.28 125315.87 
 110865.30 96467.83 82070.36 71628.61 61821.92 53394.26 45999.79 39664.35 34358.37 30018.59 
 26674.57 24122.47 22122.12 20531.38 19269.53 18214.80 17339.65 16560.58 15908.98 15339.67 
 14839.19 14358.27 13915.33 13510.55 13140.16 12804.11 12445.65 12075.65 11720.70 11324.22 
 10981.35 10638.88 10294.27 9971.49  9645.46  9318.25  9008.66  8702.30  8394.43  8083.48  
 7742.17  7402.34  7082.27  6768.90  6446.41  6123.83  5820.80  5517.56  5215.09  4914.15  
 4616.68  4329.61  4050.67  3759.54  3492.04  3233.19  2987.85  2731.89  2489.64  2268.22  
 2061.56  1874.96  1694.29  1526.02  1368.87  1226.01  1110.61  995.47   880.33   792.85   
 712.87   646.09   592.39   548.18   504.37   462.94   426.38   394.14   365.34   338.91   
 314.33   293.89   276.70   261.86   247.53   233.17   219.62   206.91   194.87   182.79   
 169.81   156.36   141.88   126.73   108.91   91.07    74.29    60.21    49.64    41.30    
 35.39    29.94    15.87    4.45     3.22     3.25     3.35     3.48     3.60     3.72     
 3.85     3.99     4.14     4.33     4.54     4.78     5.05     5.35     5.72     6.17     
 6.68     7.27     8.00     8.89     9.95     11.22    12.83    14.71    17.10    19.95    
 23.11    26.60    30.60    34.83    39.20    43.69    49.00    54.55    60.25    66.29    
 72.54    79.05    85.60    92.42    99.19    106.19   113.30   120.62   128.04   135.67   
 143.54   151.67   161.45   169.70   179.06   190.03   202.15   215.31   231.71   248.24   
 335.64   
981038.31 994320.06 1001156.30 1003312.85 1001197.89 993719.57 975987.90 939164.50 870980.90 771360.18 
 651108.40 539507.11 445069.33 368789.83 307400.91 269153.10 230905.25 192826.40 168269.74 147725.35 
 130562.00 115861.51 103103.15 91224.65 80032.77 70026.48 61346.34 53599.81 46888.26 41366.28 
 36567.58 32512.95 29103.55 26261.71 24225.93 22196.79 20752.23 19611.19 18703.12 17993.93 
 17359.37 16777.49 16233.37 15739.22 15273.65 14831.76 14392.63 13991.21 13597.88 13200.79 
 12780.89 12365.90 11971.45 11608.07 11234.50 10872.00 10528.53 10186.31 9852.74  9528.86  
 9205.29  8874.77  8515.17  8152.74  7780.97  7419.45  7058.84  6710.62  6360.43  6040.95  
 5695.74  5337.20  4966.40  4606.69  4267.33  3944.05  3631.26  3329.81  3036.10  2776.72  
 2517.34  2258.30  2028.21  1818.47  1625.75  1453.33  1300.12  1167.31  1055.20  960.20   
 875.52   803.27   748.33   702.25   654.32   608.84   569.17   533.67   502.47   474.28   
 451.05   431.06   412.94   397.67   383.92   370.81   359.12   347.65   337.19   327.89   
 318.70   310.60   303.60   297.48   291.27   284.91   279.72   274.44   268.87   263.80   
 258.59   254.02   248.01   240.58   233.09   225.62   219.88   213.33   205.42   195.01   
 182.83   166.56   144.10   113.54   74.67    43.93    27.72    17.81    7.23     4.44     
 4.78     5.30     5.90     6.61     7.46     8.61     9.96     11.67    13.68    16.15    
 18.98    22.20    25.88    29.99    34.51    39.43    44.79    50.60    56.88    63.55    
 70.47    77.53    84.58    91.81    98.84    105.93   112.91   120.40   127.88   135.39   
 142.96   150.90   159.73   168.77   178.45   189.15   201.33   215.03   230.46   248.02   
 335.64   
981038.31 990762.11 995187.91 996542.40 995115.09 987316.18 962396.27 908349.55 823352.64 715223.76 
 601726.77 502192.60 420323.25 353237.29 299473.56 256728.65 222590.92 195902.97 174288.93 155321.10 
 139208.93 125566.68 113530.54 101508.15 89485.77 79717.80 70577.05 62700.83 55707.09 49756.24 
 44423.70 39747.97 35512.38 31745.94 28611.82 26095.92 24050.65 22412.74 21115.32 20033.74 
 19136.34 18318.21 17574.43 16897.23 16305.93 15800.68 15319.43 14853.90 14415.66 13969.87 
 13552.33 13145.49 12746.49 12339.82 11956.33 11598.46 11240.81 10883.16 10524.75 10136.83 
 9725.07  9307.97  8910.50  8505.38  8100.18  7687.12  7287.74  6900.67  6530.61  6147.33  
 5761.57  5371.08  4982.00  4591.88  4244.15  3899.98  3558.98  3224.29  2915.21  2628.37  
 2355.48  2117.71  1885.73  1676.40  1494.54  1332.58  1188.49  1076.90  965.62   880.19   
 805.86   746.07   703.63   661.45   619.36   583.94   553.16   526.23   503.61   481.70   
 463.91   447.84   433.57   421.48   410.54   400.50   391.00   382.41   375.10   368.02   
 360.00   353.29   347.94   341.50   336.03   330.90   327.05   322.67   319.12   315.24   
 311.74   307.73   304.14   300.30   297.81   294.57   291.67   288.09   284.26   281.14   
 276.58   272.44   268.38   263.73   258.32   252.73   245.70   238.57   228.82   216.67   
 203.14   183.40   156.15   94.70    32.92    18.62    13.57    11.03    12.20    14.62    
 17.52    20.80    24.62    28.91    33.65    38.65    44.27    50.34    56.76    63.86    
 71.77    79.91    88.55    97.99    107.63   117.39   126.73   135.69   144.09   151.96   
 159.07   165.31   171.39   177.47   184.88   194.06   204.39   217.08   234.51   251.98   
 335.64   
981038.31 987518.37 989718.65 990561.68 988947.26 974584.71 934260.65 864860.69 767551.09 654368.38 
 546696.84 456492.59 385001.02 328076.36 282566.43 249743.89 217022.57 192576.02 171245.59 153310.84 
 137824.06 123832.12 110601.18 98645.74 87797.49 77706.02 68832.72 61185.77 54477.25 48802.13 
 44248.62 40133.74 36488.93 33265.44 30656.60 28457.53 26536.97 25034.70 23532.42 22033.95 
 20844.09 19792.96 18911.18 18145.20 17452.51 16824.41 16230.42 15707.68 15247.29 14831.37 
 14358.88 13891.71 13437.99 12983.11 12527.26 12059.26 11604.52 11164.85 10727.38 10308.09 
 9919.12  9513.78  9099.12  8697.91  8296.57  7891.13  7463.88  7000.87  6530.32  6095.58  
 5672.61  5240.05  4833.51  4449.94  4098.37  3741.74  3376.56  3045.66  2768.62  2491.57  
 2214.83  1965.54  1749.52  1551.65  1377.77  1230.35  1105.75  992.74   897.02   816.63   
 748.56   702.21   663.48   619.15   581.17   549.36   523.99   502.96   483.54   467.08   
 453.25   441.99   430.88   421.14   412.94   404.91   396.29   388.41   381.72   375.36   
 369.66   363.54   358.10   352.90   348.88   344.57   340.59   335.94   332.06   328.42   
 324.01   321.02   317.62   314.25   310.92   307.17   303.72   300.50   298.07   295.10   
 292.78   290.75   288.21   286.09   283.66   280.48   277.93   275.06   270.48   265.70   
 261.32   255.48   248.31   236.84   225.34   210.22   197.59   177.57   75.63    26.39    
 22.63    24.28    24.94    28.67    33.83    39.47    45.64    52.36    59.86    67.99    
 77.07    86.95    98.19    112.50   122.61   132.73   144.08   155.20   165.16   174.29   
 182.22   189.20   195.19   200.33   205.61   212.46   221.96   234.12   249.86   269.39   
 335.64   
981038.31 981884.07 980382.13 978027.86 966930.74 932070.00 867026.56 773390.90 664935.08 557928.99 
 463232.00 390660.86 333238.72 288324.93 251649.99 222027.96 196975.97 175811.47 158331.03 142947.07 
 128454.78 116818.58 105207.80 93597.03 83152.22 74216.36 66478.74 60160.45 54460.95 49555.50 
 45224.09 41456.63 37943.98 34917.12 32445.56 30359.37 28482.56 26758.18 25087.13 23617.77 
 22320.70 21175.77 20147.17 19250.39 18469.74 17781.27 17121.34 16489.40 15897.36 15309.59 
 14759.08 14246.94 13723.29 13187.64 12663.77 12191.53 11759.75 11328.32 10896.89 10381.98 
 9850.73  9357.32  8873.27  8411.40  7927.26  7450.13  7023.29  6623.01  6201.66  5794.60  
 5415.41  5034.02  4636.40  4233.97  3828.68  3456.28  3123.56  2811.28  2520.48  2249.16  
 2015.39  1796.00  1594.02  1417.19  1266.15  1149.62  1033.42  917.22   836.21   769.58   
 721.12   679.52   633.91   590.69   555.67   528.59   505.60   486.27   468.89   451.87   
 437.31   425.85   415.37   406.54   399.25   392.00   386.16   381.26   375.08   369.31   
 364.59   360.22   355.26   350.45   346.13   342.03   338.66   335.18   331.99   328.42   
 325.10   322.13   319.42   316.89   314.27   312.08   309.69   307.33   305.50   303.32   
 301.09   299.26   296.65   293.68   291.23   289.40   282.76   271.19   268.11   266.27   
 263.54   260.40   257.73   254.51   251.54   248.35   241.32   225.07   218.75   211.13   
 133.29   86.26    39.47    38.41    39.37    44.30    51.70    59.68    68.60    78.65    
 89.80    101.97   114.54   127.93   149.33   158.51   163.39   174.35   184.42   193.11   
 200.87   207.91   213.83   218.56   223.45   229.73   241.76   253.85   269.78   290.25   
 335.64   
981038.31 977211.02 971304.26 961891.18 936428.90 879997.85 795883.59 694289.66 588553.85 491355.52 
 410744.53 349543.91 302278.45 269669.10 237059.72 204570.80 182126.22 163299.84 147584.63 133131.66 
 120748.73 109124.44 98463.45 88455.48 79623.08 72183.38 65892.00 60369.73 55332.08 50716.70 
 46645.55 42781.97 39161.04 36158.00 33677.59 31431.14 29363.05 27507.31 26029.10 24550.89 
 23076.51 21906.76 20894.09 20073.80 19295.39 18527.77 17781.61 17069.22 16367.01 15669.33 
 14978.18 14324.87 13717.94 13193.56 12804.73 12514.17 12156.16 11638.51 11059.92 10505.59 
 9981.09  9477.50  8960.44  8402.47  7843.61  7327.15  6819.81  6330.31  5878.26  5475.38  
 5082.56  4682.70  4270.96  3881.12  3527.76  3208.73  2916.43  2624.13  2332.37  2090.79  
 1855.97  1651.59  1464.68  1304.90  1159.99  1032.18  927.30   840.54   768.64   717.92   
 677.91   632.05   586.95   549.96   520.14   495.19   473.15   453.56   434.67   419.35   
 407.58   397.63   389.80   384.12   379.54   375.88   372.83   369.35   366.13   363.14   
 360.13   357.04   353.50   349.66   345.52   342.12   338.41   334.80   331.38   327.03   
 323.91   320.87   318.70   316.37   314.17   312.45   311.07   309.13   307.01   305.17   
 303.83   301.59   299.56   297.97   295.85   294.00   291.67   271.70   268.68   268.24   
 267.31   266.15   264.44   263.16   261.52   259.54   258.03   255.74   252.83   189.75   
 126.66   64.08    42.98    44.75    47.68    52.72    61.45    71.44    82.67    94.57    
 107.22   120.92   134.63   148.90   168.43   205.96   186.41   196.15   205.14   212.95   
 219.92   226.53   232.34   237.42   242.56   249.58   259.91   273.19   290.72   312.91   
 335.64   
981038.31 971804.34 958469.25 935082.25 884067.80 802711.10 702169.30 599011.03 504618.09 422541.82 
 358244.18 307518.87 267895.75 235379.93 207504.41 184087.22 164935.71 148354.04 134348.33 120326.82 
 109077.88 97854.39 87981.58 78699.76 70739.64 63860.25 58270.35 53449.51 49086.34 45176.74 
 41611.43 38405.53 35595.63 33145.63 31014.68 28991.76 27188.54 25431.66 23979.12 22670.51 
 21573.68 20580.07 19692.65 18919.57 18240.65 17546.34 16884.31 16254.96 15674.52 15086.35 
 14536.11 13984.66 13441.28 12902.02 12403.29 11913.72 11424.23 10934.74 10429.65 9898.95  
 9368.47  8861.98  8394.88  7912.18  7421.52  6970.19  6526.61  6102.39  5704.20  5302.54  
 4902.08  4504.92  4084.27  3697.97  3330.88  3011.97  2721.01  2424.14  2168.27  1930.83  
 1725.58  1536.21  1362.57  1208.79  1087.08  965.69   875.68   795.12   738.02   692.53   
 642.28   593.14   553.78   524.15   498.75   478.04   459.87   442.74   428.27   415.90   
 405.05   396.38   389.32   382.28   376.30   370.72   366.18   361.67   357.04   353.06   
 349.32   345.88   342.31   338.75   334.87   331.57   328.40   325.42   322.21   319.40   
 316.86   314.62   312.35   310.61   308.38   306.82   304.42   302.58   301.11   299.82   
 297.82   296.30   294.65   293.62   291.62   274.54   268.34   265.90   264.51   262.95   
 261.13   259.48   257.43   255.16   252.80   242.97   230.95   225.99   219.18   125.52   
 83.48    41.84    43.57    49.23    58.00    67.59    78.01    89.12    100.89   113.36   
 126.28   139.98   154.26   175.26   199.00   191.45   201.76   210.91   218.93   225.87   
 232.40   238.72   245.09   251.47   257.45   266.38   278.21   294.31   314.87   340.42   
 335.64   
981038.31 967952.75 948015.74 914347.71 854772.60 765694.96 661628.52 561744.83 472110.39 398117.13 
 336064.15 289251.74 254831.19 220507.76 194647.65 173354.89 155421.42 140147.12 125995.36 113489.21 
 102186.48 91223.24 81655.70 73200.97 65606.68 59139.46 53368.54 48210.54 43803.80 39868.95 
 36417.10 33354.76 30787.35 28584.53 26701.79 25147.02 23595.28 22305.40 21202.43 20267.76 
 19393.12 18621.35 17911.21 17275.39 16701.69 16167.53 15638.09 15126.68 14609.18 14099.39 
 13614.96 13122.36 12632.62 12142.47 11642.58 11164.36 10712.94 10267.39 9832.16  9400.05  
 8988.80  8570.10  8146.15  7696.42  7253.80  6786.55  6321.99  5878.85  5438.88  5024.49  
 4618.55  4232.05  3856.48  3501.23  3163.09  2878.04  2593.00  2308.34  2059.98  1837.34  
 1633.62  1448.29  1283.56  1136.21  1007.26  900.39   812.60   739.12   688.82   643.64   
 592.72   550.83   517.06   489.36   466.57   446.29   429.35   414.80   403.54   394.63   
 386.24   379.53   373.48   367.05   361.22   354.87   349.28   343.87   339.04   334.35   
 329.53   326.26   322.47   320.05   317.14   314.60   312.63   310.53   309.00   306.41   
 304.53   301.80   299.51   296.74   294.37   292.32   290.48   288.51   286.81   285.02   
 283.01   281.04   278.62   275.85   273.88   271.73   269.12   266.04   263.11   258.44   
 252.35   238.88   225.41   212.05   191.12   174.34   79.22    35.07    31.07    33.37    
 35.05    41.35    48.82    57.18    66.31    76.16    86.75    97.90    109.87   122.87   
 135.88   150.11   171.24   173.89   184.45   195.38   205.49   214.92   223.33   231.38   
 238.27   245.07   251.79   258.69   266.37   275.98   288.34   304.36   325.09   349.90   
 335.64   
981038.31 963123.02 933221.59 885095.45 810894.34 712500.91 605962.63 509942.56 426743.75 359200.14 
 305013.23 262244.45 227530.42 199617.86 176251.07 156717.49 140321.11 125899.60 113383.71 100886.07 
 90101.51 80176.28 71424.44 63604.22 56529.97 50718.23 45736.63 41336.56 37396.99 33852.91 
 30687.38 28055.03 25920.68 24190.22 22777.20 21562.61 20504.63 19562.14 18741.13 18000.20 
 17321.15 16683.43 16099.06 15560.01 15053.97 14580.83 14103.89 13659.56 13215.48 12775.48 
 12361.14 11942.66 11524.13 11148.16 10781.26 10377.67 9976.24  9571.51  9168.01  8754.99  
 8339.84  7932.82  7526.81  7138.97  6745.94  6343.78  5960.12  5575.80  5171.64  4772.27  
 4399.41  4046.61  3699.46  3354.71  3036.41  2735.29  2459.53  2205.90  1974.36  1764.09  
 1572.61  1400.72  1242.63  1113.24  984.07   883.58   797.99   726.72   676.63   625.03   
 576.85   534.66   498.98   470.96   446.87   426.22   408.64   394.65   383.45   373.78   
 366.00   358.64   352.35   347.98   342.38   337.44   332.43   328.51   324.43   321.32   
 319.07   315.76   312.57   309.56   307.49   306.23   303.59   301.39   299.06   296.51   
 294.26   291.79   290.44   288.07   285.42   282.11   278.12   274.93   271.66   267.18   
 261.41   255.93   250.23   243.51   235.17   223.58   211.87   199.13   181.80   140.69   
 87.12    33.46    18.39    14.71    16.72    19.79    23.41    27.53    32.38    37.84    
 44.09    50.98    58.74    67.49    77.01    87.12    98.18    110.17   123.05   133.71   
 145.22   156.90   167.73   177.78   187.23   196.26   204.58   212.71   220.38   227.85   
 235.30   242.50   251.50   259.83   269.42   281.21   295.36   312.97   334.21   358.95   
 335.64   
981038.31 961266.05 928121.71 872184.61 789845.08 688188.98 585899.54 491417.20 408325.20 339094.17 
 295612.04 252129.94 208828.41 181571.17 159155.51 140845.99 124826.84 110170.56 97569.10 86305.01 
 76090.41 66667.15 58735.36 51366.45 45350.48 40231.89 35903.47 32219.50 29203.49 27102.39 
 25001.30 22907.97 21563.29 20475.21 19563.63 18800.87 18068.89 17368.66 16745.79 16165.06 
 15604.29 15094.86 14611.83 14149.34 13721.35 13287.14 12848.74 12440.53 12047.00 11678.70 
 11323.27 10979.03 10642.50 10298.27 9953.33  9589.94  9233.34  8859.02  8480.65  8108.40  
 7732.09  7359.66  7002.06  6647.95  6309.93  5970.83  5615.03  5275.99  4927.07  4577.43  
 4236.94  3905.39  3599.89  3307.93  3014.14  2738.27  2462.71  2217.03  1995.56  1784.59  
 1589.84  1416.90  1265.06  1134.17  1017.14  911.76   822.23   749.72   692.05   634.28   
 579.38   532.40   492.04   457.68   429.48   405.47   384.79   368.17   353.94   341.29   
 330.12   321.18   314.03   307.67   301.46   296.64   292.92   288.88   284.23   279.37   
 275.38   271.45   267.86   264.22   259.43   254.13   247.84   241.54   235.24   228.39   
 221.58   214.88   207.68   199.09   189.46   178.80   164.04   144.94   118.42   80.92    
 52.53    33.35    22.52    11.48    7.08     7.62     8.38     9.30     10.36    11.58    
 13.08    14.87    16.98    19.50    22.45    25.96    29.88    34.36    39.45    45.16    
 51.58    58.58    66.37    74.86    84.01    93.78    104.06   114.70   126.08   137.46   
 148.51   159.34   169.64   179.66   188.96   197.80   205.85   213.69   221.12   228.55   
 236.17   244.37   252.89   262.71   274.02   287.21   302.91   321.25   342.54   365.78   
 335.64   
981038.31 958009.62 916733.85 850169.23 760382.65 656209.78 551975.13 458170.94 376815.07 308904.26 
 256160.08 215906.53 185060.24 159718.58 138012.53 119233.19 105507.49 91818.92 80830.49 70670.36 
 61519.75 53698.29 46744.37 40845.41 35978.60 32054.02 28871.08 26300.53 24130.43 22269.58 
 20725.22 19424.13 18300.43 17276.10 16415.65 15646.27 14963.27 14338.05 13767.87 13294.21 
 12858.16 12446.89 12049.50 11652.24 11254.98 10892.58 10534.19 10189.48 9870.93  9564.99  
 9244.70  8943.66  8657.67  8371.41  8083.49  7785.24  7488.12  7188.55  6891.43  6598.46  
 6296.85  6016.61  5735.35  5440.88  5138.85  4833.04  4529.25  4247.79  3978.10  3709.74  
 3448.01  3198.32  2944.86  2695.64  2455.54  2239.88  2032.30  1834.28  1648.34  1479.43  
 1323.07  1193.56  1064.26  934.95   831.78   743.26   664.30   598.55   548.12   499.34   
 450.84   408.31   369.96   336.81   307.76   283.12   260.40   240.23   221.73   204.49   
 188.60   173.52   160.00   148.32   136.26   125.50   114.74   104.10   92.38    79.13    
 66.11    54.26    45.78    39.82    33.33    17.20    6.27     5.12     5.27     5.52     
 5.77     6.04     6.33     6.64     6.95     7.28     7.62     7.99     8.41     8.85     
 9.33     9.85     10.39    11.05    11.79    12.64    13.62    14.70    15.92    17.38    
 19.05    21.11    23.55    26.32    29.62    33.31    37.51    42.22    47.72    54.17    
 60.17    66.91    74.54    82.91    91.67    100.59   110.03   119.73   129.39   139.18   
 148.89   158.72   168.38   178.05   187.23   196.23   204.84   213.38   221.69   230.06   
 238.97   250.41   260.60   272.22   285.66   301.16   318.60   338.63   360.68   384.40   
 335.64   
981038.31 951830.92 898078.63 819213.30 720748.97 609431.35 500792.67 402155.96 319308.50 255432.48 
 207828.49 172450.90 145426.47 123559.45 108293.08 93096.54 77900.01 67446.08 58587.48 50672.98 
 43923.45 37940.79 32941.31 28773.91 25444.34 22731.40 20561.40 18728.44 17219.51 15909.34 
 14830.03 13839.68 12996.46 12214.93 11535.29 10977.13 10420.30 9863.48  9468.25  9100.94  
 8758.26  8398.80  8052.04  7702.01  7353.85  7027.74  6700.75  6379.82  6065.04  5757.94  
 5468.44  5191.99  4934.30  4679.12  4419.41  4175.23  3961.99  3727.07  3477.45  3229.20  
 2990.10  2757.80  2537.47  2313.87  2085.29  1883.24  1692.89  1511.42  1339.55  1170.82  
 1022.82  875.04   747.68   625.12   517.98   424.11   343.12   272.30   212.35   162.59   
 118.35   74.01    29.67    10.58    6.00     5.62     5.35     5.12     5.11     5.17     
 5.20     5.17     5.20     5.37     5.56     5.75     5.96     6.20     6.45     6.72     
 7.00     7.30     7.62     7.96     8.32     8.69     9.08     9.50     9.93     10.37    
 10.84    11.31    11.83    12.38    12.95    13.55    14.17    14.81    15.48    16.16    
 16.86    17.58    18.33    19.09    19.87    20.66    21.53    22.44    23.37    24.41    
 25.57    26.93    28.44    30.25    32.31    34.78    37.75    41.41    45.73    50.80    
 56.87    64.04    72.65    83.65    96.85    112.47   130.56   150.70   172.82   197.63   
 227.15   256.73   286.68   316.51   345.60   374.03   403.06   429.78   453.23   473.08   
 490.24   504.17   513.87   519.75   521.54   519.07   512.87   502.94   490.52   476.06   
 459.57   441.63   422.49   402.74   382.51   361.54   340.65   320.13   300.71   281.80   
 335.64   
981038.31 956048.54 910851.89 840739.26 748319.15 637479.10 523172.75 421931.92 334273.60 281758.93 
 229244.23 176923.44 148155.05 123868.88 102561.98 87451.62 75099.39 64580.08 55219.92 46918.57 
 40297.34 34478.83 29629.30 26159.04 22688.77 19228.53 16893.19 14949.42 13279.54 11918.95 
 10767.76 9697.66  8799.31  8020.45  7306.07  6640.82  6068.22  5522.38  5053.05  4649.76  
 4300.18  3958.85  3622.23  3271.27  2901.00  2517.69  2134.44  1758.26  1403.33  1066.48  
 766.95   568.53   435.32   335.71   277.45   219.20   161.19   133.62   114.88   100.61   
 89.13    78.86    70.07    62.58    56.25    51.28    47.05    44.01    41.04    38.23    
 34.95    29.45    21.61    20.01    18.33    16.75    15.32    13.82    11.99    9.76     
 7.32     5.11     4.40     4.46     4.57     4.72     4.86     5.03     5.20     5.37     
 5.57     5.78     6.01     6.26     6.53     6.83     7.13     7.45     7.79     8.15     
 8.52     8.91     9.31     9.75     10.22    10.69    11.17    11.68    12.21    12.76    
 13.32    13.90    14.53    15.17    15.82    16.50    17.20    17.90    18.62    19.36    
 20.14    20.96    21.82    22.67    23.57    24.53    25.53    26.63    27.81    29.13    
 30.62    32.27    34.19    36.41    38.96    41.94    45.45    49.54    54.17    59.64    
 66.16    73.76    82.56    93.03    106.96   120.91   138.25   157.64   179.53   204.15   
 230.49   258.85   287.35   317.96   348.18   377.62   406.63   432.85   457.68   479.27   
 497.64   512.60   523.68   530.84   533.43   532.11   526.92   517.86   505.60   491.30   
 474.96   457.04   437.87   417.30   396.47   374.81   352.28   330.11   308.80   288.14   
 335.64   
981038.31 958113.46 919076.16 854356.00 767029.99 663124.48 547342.45 426212.30 323985.95 254772.40 
 199532.40 161443.23 132161.19 113748.99 95454.44 77159.89 63477.40 54827.17 45728.53 39374.72 
 32374.24 27124.20 23068.76 19615.84 16808.47 14452.02 12406.56 10900.61 9400.15  7899.69  
 6625.29  5507.49  4455.49  3514.72  2712.86  2126.26  1579.25  1137.80  814.26   491.91   
 319.30   220.76   166.62   133.99   113.06   92.26    79.67    70.76    63.59    58.08    
 53.25    49.73    46.91    44.22    42.10    40.18    37.71    35.68    33.75    31.95    
 29.95    27.02    20.48    16.40    15.75    15.13    14.47    13.84    13.27    12.75    
 12.19    11.65    11.09    10.40    9.73     8.98     8.16     7.23     6.30     5.51     
 4.93     4.67     4.69     4.83     4.99     5.16     5.36     5.58     5.81     6.05     
 6.32     6.61     6.89     7.22     7.55     7.92     8.30     8.68     9.09     9.50     
 9.93     10.36    10.82    11.30    11.78    12.27    12.80    13.34    13.90    14.49    
 15.10    15.72    16.38    17.05    17.73    18.44    19.15    19.90    20.67    21.46    
 22.27    23.11    24.01    24.95    25.91    26.99    28.19    29.52    30.93    32.51    
 34.30    36.29    38.60    41.17    44.13    47.41    51.21    55.61    60.63    66.38    
 72.86    80.24    88.82    99.09    111.33   125.39   141.47   159.71   179.94   203.58   
 232.11   260.68   290.35   320.44   349.92   379.67   411.02   440.68   466.64   488.93   
 507.96   524.07   535.41   542.05   544.26   542.07   536.17   526.50   514.37   500.67   
 484.15   465.60   445.52   425.02   403.08   379.71   356.33   333.61   310.56   288.01   
 335.64   
981038.31 964440.26 938154.16 891170.43 820263.30 700067.86 559700.33 441955.45 338593.89 265765.63 
 193221.20 156184.68 121676.86 98586.72 80899.40 63090.42 54370.43 47879.77 42356.28 37108.69 
 32155.89 27518.04 22880.19 18252.37 14806.63 10464.19 7394.85  5219.15  3902.87  2586.58  
 1275.37  655.42   414.81   328.13   241.44   155.28   129.68   107.91   91.08    76.18    
 65.27    57.54    51.34    46.58    42.39    39.28    36.58    34.65    33.12    31.77    
 30.31    29.15    27.76    25.99    24.12    20.90    15.85    13.75    13.39    13.02    
 12.66    12.20    11.73    11.28    10.90    10.55    10.17    9.79     9.42     9.05     
 8.64     8.24     7.83     7.41     6.91     6.39     5.90     5.44     5.05     4.72     
 4.47     4.47     4.56     4.69     4.85     5.03     5.22     5.42     5.63     5.85     
 6.10     6.36     6.61     6.91     7.25     7.58     7.94     8.31     8.71     9.12     
 9.54     9.97     10.46    10.95    11.44    11.93    12.45    13.00    13.57    14.14    
 14.73    15.35    16.00    16.68    17.36    18.05    18.80    19.56    20.33    21.15    
 22.02    22.99    24.00    25.04    26.14    27.34    28.71    30.20    31.78    33.53    
 35.52    37.66    40.13    42.81    45.87    49.25    53.15    57.52    62.28    67.73    
 74.11    81.21    89.23    98.57    109.29   123.50   137.72   154.48   174.23   196.66   
 221.23   248.73   277.39   308.18   340.19   372.30   404.98   435.71   465.73   492.51   
 515.78   534.68   548.38   557.51   561.04   559.14   552.88   542.95   530.17   514.96   
 498.12   479.68   460.62   439.31   416.98   394.26   370.49   346.61   323.21   299.08   
 335.64   
981038.31 969696.70 951490.95 919391.07 841483.17 710657.82 585197.33 459694.33 338489.79 262029.24 
 192202.50 144471.35 113034.72 92777.85 72641.11 63394.62 55578.34 48933.28 42798.89 35748.91 
 28152.41 19998.49 13206.18 9013.93  4850.71  2503.73  1125.43  750.49   385.72   269.24   
 185.08   134.33   109.70   85.38    69.43    58.36    49.13    41.84    36.84    32.95    
 30.19    28.07    26.51    24.69    23.49    22.56    21.73    21.08    20.36    19.19    
 17.39    14.33    11.76    11.18    10.83    10.47    10.15    9.91     9.67     9.44     
 9.21     8.99     8.76     8.51     8.33     8.19     8.09     7.97     7.83     7.66     
 7.44     7.20     6.91     6.59     6.27     5.95     5.64     5.40     5.19     5.01     
 4.91     4.87     4.88     4.97     5.08     5.20     5.35     5.46     5.63     5.81     
 6.04     6.27     6.53     6.82     7.12     7.45     7.79     8.17     8.56     8.97     
 9.40     9.83     10.29    10.77    11.25    11.76    12.29    12.85    13.43    14.03    
 14.64    15.28    15.95    16.63    17.34    18.08    18.85    19.64    20.49    21.37    
 22.27    23.22    24.24    25.34    26.51    27.76    29.17    30.69    32.37    34.21    
 36.18    38.41    40.91    43.79    46.98    50.50    54.51    59.13    64.26    69.89    
 76.15    83.16    91.18    100.35   110.63   122.70   136.72   152.69   171.08   192.70   
 216.90   245.15   273.43   303.78   336.51   368.87   400.60   431.63   462.91   491.72   
 517.18   538.28   555.28   566.19   571.35   570.81   565.14   554.88   541.79   525.56   
 508.48   490.02   471.08   451.51   431.58   410.02   387.89   365.50   341.53   317.23   
 335.64   
981038.31 974699.18 966260.45 948778.13 886890.73 770244.15 652250.79 526339.16 409199.68 325752.53 
 242305.38 159128.20 108973.91 92151.13 79193.16 68937.81 60422.66 52816.58 41381.57 32329.88 
 23278.19 14250.25 8242.40  5674.90  3107.40  561.29   411.82   299.93   247.59   195.41   
 158.41   121.83   94.23    77.10    63.78    51.34    42.62    36.25    31.82    27.84    
 24.93    22.82    20.51    18.35    16.81    15.44    14.38    13.53    12.71    11.34    
 10.08    9.62     9.26     8.89     8.57     8.16     7.70     7.44     7.59     7.81     
 7.81     7.70     7.49     7.17     6.80     6.43     6.13     5.84     5.59     5.45     
 5.30     5.17     5.08     4.97     4.89     4.84     4.77     4.71     4.66     4.63     
 4.63     4.64     4.68     4.75     4.83     4.94     5.04     5.16     5.28     5.40     
 5.57     5.77     5.98     6.23     6.50     6.79     7.10     7.45     7.80     8.19     
 8.58     8.99     9.42     9.91     10.40    10.91    11.43    11.98    12.55    13.15    
 13.74    14.37    15.05    15.76    16.48    17.20    17.97    18.79    19.61    20.49    
 21.41    22.42    23.46    24.54    25.65    26.85    28.16    29.65    31.20    32.89    
 34.81    36.90    39.27    41.92    44.94    48.27    52.16    56.56    61.32    66.69    
 72.91    79.73    87.33    95.81    105.36   117.60   129.87   144.24   161.11   180.90   
 203.01   228.43   255.64   285.85   317.63   350.36   383.78   416.03   448.13   478.05   
 505.78   530.83   552.30   569.09   579.59   583.90   582.33   575.10   564.16   549.61   
 533.02   515.34   497.53   478.37   458.85   438.59   416.80   393.86   368.94   343.94   
 335.64   
981038.31 979078.96 975494.05 965525.09 919278.58 815287.81 710073.60 592059.66 475606.16 355374.26 
 259218.99 180951.01 121014.58 103531.45 86509.74 74939.70 65246.25 56810.89 44125.59 33476.47 
 22701.07 14849.73 10136.08 5458.07  780.05   507.11   281.46   55.80    37.41    30.72    
 26.45    22.93    20.10    17.79    16.17    14.64    13.15    12.14    11.29    10.45    
 9.81     9.64     9.21     8.86     8.43     8.05     7.88     7.77     7.39     7.03     
 6.42     6.08     6.03     6.20     6.24     6.02     5.70     5.51     5.35     5.23     
 5.16     5.11     5.05     5.02     4.98     4.95     4.93     4.90     4.88     4.87     
 4.87     4.87     4.87     4.88     4.88     4.88     4.88     4.89     4.90     4.94     
 4.98     5.02     5.06     5.11     5.18     5.26     5.37     5.50     5.64     5.81     
 5.98     6.17     6.38     6.60     6.85     7.10     7.38     7.70     8.01     8.33     
 8.67     9.03     9.42     9.86     10.35    10.85    11.37    11.92    12.46    13.06    
 13.70    14.32    14.97    15.66    16.37    17.11    17.89    18.69    19.55    20.48    
 21.41    22.36    23.37    24.46    25.56    26.74    28.06    29.47    30.97    32.62    
 34.43    36.41    38.66    41.19    43.99    47.13    50.68    54.73    59.27    64.40    
 70.04    76.31    83.43    91.37    100.25   110.52   122.11   135.28   150.18   168.06   
 188.90   212.34   239.60   266.90   297.49   330.13   362.88   394.76   427.28   458.81   
 487.53   513.29   537.21   557.30   571.54   579.91   582.67   579.73   571.97   560.10   
 545.00   529.07   511.96   494.27   476.18   457.65   437.54   416.28   392.69   367.51   
 335.64   
