IESNA:LM-63-2002
[TEST] 1
[TESTLAB] AOK
[TESTDATE] 2022-07-02
[ISSUEDATE] 2022-07-02 15:27:18
[NEARFIELD] 
[LAMPPOSITION] 0,0
[OTHER] EVERFINE GO-2000A_V1 SYSTEM
[MANUFAC] AOK
[LUMCAT] A
[LUMINAIRE] AOK-800WiSF-HV-S35-00-5070-2030D-P
[LAMPCAT] B
[LAMP] 3535
[BALLAST] E
[BALLASTCAT] F
[OTHER] 
[OTHER] Gamma(deg)    Fz(lm)      Ft(lm)     %Lum    %Lamp
[OTHER]   0- 10     32563.97    32563.97    30.87    30.87
[OTHER]  10- 20     37748.16    70312.13    66.65    66.65
[OTHER]  20- 30     15913.01    86225.14    81.73    81.73
[OTHER]  30- 40      6994.56    93219.70    88.36    88.36
[OTHER]  40- 50      4194.15    97413.85    92.34    92.34
[OTHER]  50- 60      3192.92   100606.77    95.36    95.36
[OTHER]  60- 70      2165.73   102772.51    97.42    97.42
[OTHER]  70- 80      1174.19   103946.69    98.53    98.53
[OTHER]  80- 90       548.03   104494.72    99.05    99.05
[OTHER]  90-100       297.74   104792.46    99.33    99.33
[OTHER] 100-110       199.63   104992.09    99.52    99.52
[OTHER] 110-120       145.63   105137.71    99.66    99.66
[OTHER] 120-130       102.28   105239.99    99.75    99.75
[OTHER] 130-140        67.17   105307.16    99.82    99.82
[OTHER] 140-150        50.38   105357.54    99.87    99.87
[OTHER] 150-160        58.69   105416.23    99.92    99.92
[OTHER] 160-170        60.33   105476.55    99.98    99.98
[OTHER] 170-180        22.50   105499.06   100.00   100.00
[OTHER] 
TILT=NONE
1 1.055e+005 1 181 25 1 2 0.150 0.200 0.000
1.000 1 800.582
0.0    1.0    2.0    3.0    4.0    5.0    6.0    7.0    8.0    9.0    
 10.0   11.0   12.0   13.0   14.0   15.0   16.0   17.0   18.0   19.0   
 20.0   21.0   22.0   23.0   24.0   25.0   26.0   27.0   28.0   29.0   
 30.0   31.0   32.0   33.0   34.0   35.0   36.0   37.0   38.0   39.0   
 40.0   41.0   42.0   43.0   44.0   45.0   46.0   47.0   48.0   49.0   
 50.0   51.0   52.0   53.0   54.0   55.0   56.0   57.0   58.0   59.0   
 60.0   61.0   62.0   63.0   64.0   65.0   66.0   67.0   68.0   69.0   
 70.0   71.0   72.0   73.0   74.0   75.0   76.0   77.0   78.0   79.0   
 80.0   81.0   82.0   83.0   84.0   85.0   86.0   87.0   88.0   89.0   
 90.0   91.0   92.0   93.0   94.0   95.0   96.0   97.0   98.0   99.0   
 100.0  101.0  102.0  103.0  104.0  105.0  106.0  107.0  108.0  109.0  
 110.0  111.0  112.0  113.0  114.0  115.0  116.0  117.0  118.0  119.0  
 120.0  121.0  122.0  123.0  124.0  125.0  126.0  127.0  128.0  129.0  
 130.0  131.0  132.0  133.0  134.0  135.0  136.0  137.0  138.0  139.0  
 140.0  141.0  142.0  143.0  144.0  145.0  146.0  147.0  148.0  149.0  
 150.0  151.0  152.0  153.0  154.0  155.0  156.0  157.0  158.0  159.0  
 160.0  161.0  162.0  163.0  164.0  165.0  166.0  167.0  168.0  169.0  
 170.0  171.0  172.0  173.0  174.0  175.0  176.0  177.0  178.0  179.0  
 180.0  
0.0    15.0   30.0   45.0   60.0   75.0   90.0   105.0  120.0  135.0  
 150.0  165.0  180.0  195.0  210.0  225.0  240.0  255.0  270.0  285.0  
 300.0  315.0  330.0  345.0  360.0  
444161.03 443827.19 438814.01 428346.17 385503.85 339885.35 297897.79 243000.87 196254.05 147441.46 
 117267.14 87310.61 57354.10 49448.40 43722.87 39394.04 35869.97 27124.34 22848.84 18090.78 
 12078.20 7778.02  3498.11  1458.08  972.43   503.58   34.73    22.57    18.92    17.60    
 16.70    15.24    14.23    13.20    12.17    10.94    10.01    9.17     8.71     8.58     
 8.42     8.22     8.06     7.82     7.30     6.92     6.66     6.27     5.82     5.62     
 5.30     5.04     4.86     4.75     4.62     4.49     4.34     4.27     4.23     4.21     
 4.18     4.16     4.13     4.13     4.13     4.13     4.11     4.09     4.08     4.06     
 4.04     4.01     3.99     3.96     3.92     3.89     3.87     3.84     3.81     3.78     
 3.79     3.79     3.80     3.80     3.81     3.81     3.85     3.90     3.98     4.07     
 4.17     4.31     4.43     4.58     4.74     4.92     5.09     5.29     5.49     5.70     
 5.92     6.15     6.40     6.65     6.93     7.22     7.50     7.80     8.11     8.44     
 8.77     9.12     9.49     9.86     10.26    10.67    11.11    11.55    12.02    12.51    
 13.01    13.55    14.11    14.69    15.29    15.92    16.62    17.35    18.13    18.97    
 19.88    20.89    22.01    23.30    24.81    26.58    28.72    31.28    34.25    37.64    
 41.36    45.45    50.06    55.24    60.91    67.05    73.78    81.35    90.30    101.02   
 113.30   127.08   142.23   159.36   178.51   198.47   218.88   240.44   262.02   283.12   
 302.87   321.45   339.11   354.70   366.88   375.91   381.43   383.39   381.91   377.20   
 369.97   361.07   350.74   339.22   326.75   312.94   297.52   281.27   263.72   244.56   
 225.39   
444161.03 444800.39 440680.13 431654.04 405872.41 355279.89 315843.73 267041.36 218238.98 169498.49 
 128807.98 96463.48 63630.19 52597.40 45529.00 40194.68 36117.07 32614.11 26344.22 20092.55 
 16277.87 10833.49 6347.30  4386.17  2425.04  479.80   314.37   150.40   142.23   100.16   
 77.46    92.79    61.07    35.65    26.17    21.68    19.16    17.56    16.47    15.51    
 14.98    14.10    13.12    12.20    11.35    10.45    9.47     8.35     7.64     7.07     
 6.59     6.30     6.07     5.81     5.52     5.30     5.39     5.59     5.63     5.59     
 5.48     5.32     5.17     5.01     4.86     4.73     4.59     4.44     4.30     4.19     
 4.06     3.94     3.88     3.83     3.75     3.68     3.60     3.54     3.46     3.45     
 3.44     3.43     3.43     3.42     3.46     3.50     3.54     3.60     3.69     3.79     
 3.91     4.05     4.19     4.35     4.53     4.72     4.88     5.09     5.30     5.54     
 5.76     6.01     6.27     6.54     6.83     7.12     7.42     7.72     8.05     8.38     
 8.70     9.05     9.43     9.80     10.20    10.61    11.05    11.50    11.96    12.45    
 12.96    13.50    14.07    14.64    15.24    15.86    16.55    17.27    18.03    18.86    
 19.76    20.78    21.92    23.29    24.92    26.88    29.23    32.02    35.12    38.67    
 42.73    47.12    51.94    57.18    62.98    69.53    76.74    84.98    94.25    105.16   
 118.58   132.02   147.00   164.06   182.25   201.53   221.50   241.48   262.01   281.93   
 301.11   319.50   336.23   351.02   362.11   370.30   374.90   376.14   373.98   368.99   
 361.87   352.87   342.79   331.49   319.18   305.69   290.81   274.84   257.61   239.50   
 225.39   
444161.03 444616.66 440935.21 433324.54 421469.62 382628.72 338147.68 298861.47 253307.80 208468.86 
 164866.96 128646.78 103864.18 79208.42 54552.65 46509.19 40557.20 35664.05 31657.94 28180.82 
 21023.21 17228.23 13148.68 10161.95 7187.53  4213.12  2322.36  1022.96  703.74   397.00   
 240.91   200.99   165.00   137.53   110.16   82.78    65.43    50.46    43.43    37.05    
 33.55    29.60    27.07    24.67    22.61    20.09    18.10    16.79    15.27    13.43    
 11.13    10.41    9.71     8.98     8.17     7.70     7.61     7.59     7.49     7.24     
 6.90     6.58     6.34     6.15     5.97     5.81     5.64     5.50     5.35     5.19     
 5.00     4.81     4.63     4.45     4.27     4.08     3.90     3.74     3.59     3.47     
 3.36     3.30     3.27     3.29     3.35     3.43     3.51     3.61     3.72     3.84     
 3.99     4.14     4.29     4.46     4.66     4.86     5.07     5.30     5.53     5.79     
 6.05     6.32     6.60     6.89     7.19     7.49     7.80     8.13     8.47     8.83     
 9.19     9.57     9.96     10.37    10.80    11.24    11.67    12.12    12.60    13.09    
 13.58    14.10    14.66    15.26    15.87    16.54    17.29    18.08    18.99    20.01    
 21.24    22.67    24.33    26.26    28.45    30.98    33.87    37.13    40.77    44.69    
 48.95    53.59    58.80    64.78    71.55    78.99    87.24    96.41    106.62   118.62   
 131.93   146.17   161.23   176.83   193.62   211.73   229.40   248.67   267.96   286.27   
 303.46   318.90   332.99   344.29   353.02   358.82   361.79   361.99   359.62   355.06   
 348.61   340.98   332.33   322.03   310.42   297.55   283.10   267.69   252.09   236.50   
 225.39   
444161.03 444853.32 442019.37 436282.04 426116.16 409950.33 377376.28 337453.20 305580.02 265543.73 
 225507.45 185570.54 157626.43 123431.84 102349.14 81192.71 61567.15 47175.90 39681.68 34153.26 
 29375.88 25893.76 22418.28 19745.35 15962.86 12381.84 9438.57  7420.47  5532.92  3869.05  
 2839.95  1812.77  1041.31  634.28   437.77   342.97   248.17   153.97   125.64   103.40   
 84.12    71.26    61.79    52.40    45.75    39.64    35.42    31.51    28.05    25.63    
 23.63    21.90    20.54    18.82    16.33    12.14    10.73    10.43    10.13    9.78     
 9.36     8.97     8.63     8.33     8.04     7.73     7.46     7.23     6.99     6.72     
 6.47     6.21     5.94     5.67     5.37     5.05     4.71     4.36     4.04     3.75     
 3.49     3.28     3.15     3.16     3.23     3.31     3.41     3.53     3.65     3.79     
 3.94     4.10     4.27     4.45     4.66     4.88     5.12     5.36     5.61     5.87     
 6.14     6.43     6.73     7.06     7.39     7.73     8.07     8.42     8.78     9.15     
 9.51     9.87     10.27    10.67    11.09    11.54    12.01    12.50    12.99    13.50    
 14.04    14.64    15.30    15.99    16.76    17.63    18.63    19.76    21.01    22.43    
 24.02    25.78    27.77    29.95    32.34    35.04    38.10    41.53    45.25    49.46    
 54.32    59.70    65.79    72.58    80.27    88.83    98.19    108.57   120.62   132.68   
 146.04   160.18   174.67   190.34   206.27   222.64   239.13   254.98   270.85   285.72   
 299.36   311.73   322.44   331.12   337.71   342.23   344.54   344.92   343.46   340.30   
 335.47   329.16   321.35   312.06   301.46   289.50   276.24   262.88   248.92   235.44   
 225.39   
444161.03 443866.02 441084.04 435416.79 424318.31 407450.20 393687.73 377389.29 354399.10 318520.51 
 281418.39 251206.52 220756.00 192405.57 164197.19 135950.37 115900.02 94455.39 72991.95 58037.50 
 45032.70 37186.21 30414.73 24884.01 22155.07 19432.95 17408.91 15397.65 13614.57 11937.35 
 10342.73 8749.11  7164.64  5606.00  4428.27  3438.56  2651.13  2103.57  1665.51  1304.81  
 1002.01  699.93   484.63   345.50   244.42   188.12   151.55   128.60   105.80   83.01    
 70.79    61.74    55.27    49.17    43.45    39.59    36.17    33.08    30.56    28.42    
 25.94    23.60    20.39    14.97    13.29    12.38    11.82    11.19    10.57    10.03    
 9.55     9.08     8.69     8.27     7.81     7.39     6.92     6.42     5.84     5.24     
 4.67     4.14     3.71     3.54     3.54     3.62     3.73     3.85     3.97     4.11     
 4.26     4.43     4.61     4.81     5.02     5.25     5.49     5.74     6.01     6.30     
 6.59     6.89     7.20     7.53     7.88     8.22     8.58     8.96     9.35     9.74     
 10.13    10.54    10.97    11.43    11.91    12.39    12.88    13.40    13.98    14.59    
 15.26    16.00    16.80    17.68    18.61    19.64    20.83    22.12    23.54    25.04    
 26.75    28.66    30.75    33.12    35.78    38.79    42.33    46.35    50.93    56.09    
 61.81    68.47    75.97    84.18    93.07    102.89   113.58   124.91   136.84   149.73   
 163.27   176.91   190.63   204.48   219.06   233.07   247.07   261.07   273.26   284.95   
 295.29   304.36   312.06   318.81   324.03   327.51   329.41   329.74   328.53   325.70   
 321.56   315.76   309.03   300.92   291.92   282.17   271.81   260.88   249.33   237.86   
 225.39   
444161.03 443026.07 440557.66 435732.77 425444.67 409386.43 396988.65 380840.30 363222.06 344547.88 
 324326.65 304825.07 280844.70 254433.19 228021.71 201600.17 174069.36 144481.83 117508.45 95817.47 
 79205.65 66145.31 55801.28 47278.52 41527.83 36725.30 32582.46 28436.03 25595.51 22758.44 
 20269.01 17719.20 15184.79 13223.97 11413.43 9828.30  8482.10  7355.49  6447.15  5703.55  
 5086.08  4559.37  4138.12  3762.62  3406.86  3047.43  2732.64  2417.91  2110.55  1813.41  
 1508.41  1213.05  944.60   728.61   564.56   452.30   368.87   301.30   251.01   200.84   
 165.29   135.63   112.48   95.07    81.61    69.51    59.00    49.85    43.43    38.12    
 33.32    29.61    26.41    22.80    16.79    15.20    14.05    12.64    11.41    10.25    
 9.06     7.54     5.71     4.08     3.23     3.25     3.33     3.41     3.51     3.60     
 3.72     3.86     4.00     4.16     4.36     4.56     4.79     5.03     5.29     5.54     
 5.80     6.08     6.38     6.70     7.03     7.39     7.75     8.15     8.56     8.98     
 9.42     9.87     10.36    10.86    11.36    11.87    12.42    12.99    13.59    14.22    
 14.95    15.76    16.70    17.72    18.79    20.05    21.51    23.07    24.77    26.56    
 28.59    30.78    33.21    35.85    38.83    42.22    46.21    50.69    55.60    61.00    
 67.06    74.11    82.05    90.85    100.42   110.86   122.56   134.27   146.49   159.10   
 172.27   185.31   198.10   211.22   223.92   236.26   248.25   259.54   270.52   280.67   
 290.03   298.25   305.64   312.15   317.56   321.70   324.45   325.79   325.83   324.37   
 321.65   317.66   312.87   306.47   299.11   290.78   281.32   271.06   260.64   249.87   
 225.39   
444161.03 441330.21 437895.76 433226.68 423848.63 408687.15 396173.12 381711.18 365429.71 347404.86 
 328790.02 310171.04 287604.17 263787.83 237358.93 210913.60 183116.41 156444.89 132540.96 112369.26 
 95698.10 81949.49 71149.17 61707.44 54227.14 47801.84 42884.93 38615.79 34971.53 31686.11 
 28531.19 25788.46 23045.73 20306.93 17932.28 15905.95 14131.10 12641.53 11464.60 10458.18 
 9656.54  8966.72  8408.53  7876.78  7395.21  6945.05  6560.08  6195.73  5857.30  5521.56  
 5178.31  4838.45  4484.09  4147.29  3842.69  3578.42  3318.78  3081.96  2854.93  2647.48  
 2440.28  2254.42  2074.35  1909.01  1748.82  1602.31  1459.36  1315.23  1181.48  1062.43  
 946.17   838.27   739.93   648.94   563.56   484.64   413.64   347.62   290.63   242.52   
 194.51   154.31   120.59   91.68    58.64    24.28    5.39     3.57     3.04     2.78     
 2.50     2.40     2.34     2.28     2.20     2.14     1.87     1.73     1.76     1.72     
 1.71     1.72     1.73     1.81     1.89     1.95     2.00     2.05     2.10     2.18     
 2.18     2.27     2.39     2.48     2.62     2.80     2.99     3.15     3.24     3.34     
 3.44     3.56     3.70     3.88     4.10     4.35     4.64     4.95     5.29     5.68     
 6.14     6.65     7.23     7.80     8.44     9.17     9.99     10.95    12.04    13.24    
 14.60    16.15    17.90    19.85    21.98    24.36    26.84    29.50    32.30    35.21    
 38.32    41.45    44.72    48.13    51.63    55.36    59.24    63.34    67.66    72.14    
 76.80    81.54    86.50    92.00    97.58    103.51   109.91   116.85   124.61   132.37   
 140.75   149.87   159.77   170.23   181.34   192.97   204.52   216.14   227.43   239.06   
 225.39   
444161.03 441026.00 437131.54 431848.92 422407.77 407720.44 394176.60 379658.91 363002.45 343486.30 
 321971.76 300084.54 276181.31 252261.21 226880.05 202514.34 178853.10 155684.40 133506.01 115929.04 
 98395.36 80861.68 69986.25 61653.23 55037.42 49773.10 45407.41 41623.36 38014.46 34596.32 
 31522.77 28460.36 25417.72 22706.44 20203.12 18115.73 16213.24 14517.42 13182.09 12145.08 
 11447.80 10753.81 10059.82 9550.95  9128.48  8743.14  8394.89  8066.14  7759.56  7445.94  
 7156.27  6887.15  6625.82  6343.79  6050.78  5755.67  5460.94  5170.22  4880.33  4604.84  
 4347.88  4118.10  3900.66  3698.52  3500.93  3311.76  3124.27  2946.38  2772.18  2601.21  
 2443.86  2296.22  2152.65  2014.71  1880.42  1759.74  1643.98  1532.66  1424.99  1323.73  
 1229.73  1146.59  1063.54  984.29   908.51   837.32   771.47   712.45   658.37   609.58   
 568.70   526.91   487.78   451.43   417.08   384.21   353.80   325.61   300.45   277.38   
 255.15   234.82   215.45   197.21   179.58   162.60   147.01   131.77   117.85   103.94   
 91.79    81.11    72.01    62.62    53.87    45.65    38.17    31.96    27.28    17.06    
 6.23     4.16     3.96     3.96     4.13     4.31     4.51     4.77     5.06     5.40     
 6.13     6.91     7.67     8.47     9.83     11.32    11.43    11.21    11.62    12.66    
 13.62    14.78    16.23    18.31    20.52    22.19    24.13    26.42    28.79    31.36    
 34.08    36.91    39.07    41.33    44.52    47.70    50.91    54.22    57.58    61.12    
 64.78    68.65    72.67    77.03    81.63    86.69    92.24    98.39    105.43   113.29   
 120.57   130.39   141.59   153.51   165.62   179.08   193.00   207.37   221.57   236.03   
 225.39   
444161.03 440887.09 436177.47 429590.30 420287.43 407167.69 390118.86 372687.35 352915.57 329198.52 
 301901.58 274426.04 248571.35 222747.80 199639.14 178309.11 157077.11 136166.61 115603.75 98342.04 
 84630.53 74078.52 65804.62 59326.66 54023.85 49524.78 45620.11 41876.73 38489.88 35075.55 
 31968.93 28998.51 26330.72 23662.94 21000.51 18819.79 16840.41 15136.12 13652.72 12543.85 
 11691.86 11066.14 10561.11 10141.17 9782.06  9449.34  9128.21  8846.02  8593.81  8353.20  
 8118.06  7874.56  7630.94  7377.32  7128.07  6866.80  6598.64  6320.54  6042.49  5769.57  
 5492.55  5205.66  4924.65  4668.56  4434.99  4203.59  3973.83  3748.93  3531.20  3314.39  
 3108.47  2914.70  2739.51  2564.32  2389.29  2226.35  2069.93  1922.51  1790.24  1663.85  
 1546.00  1436.39  1339.82  1252.31  1173.45  1098.49  1030.39  966.36   907.87   858.74   
 818.43   772.62   730.22   689.22   651.78   617.68   586.93   557.55   531.29   506.92   
 484.50   464.10   444.53   426.56   409.76   393.95   379.10   364.86   352.09   340.34   
 328.46   316.77   305.46   294.03   283.24   272.40   261.61   250.55   238.51   226.46   
 214.30   202.68   191.12   179.46   167.46   155.39   142.88   131.22   118.92   105.07   
 90.46    73.18    48.75    30.96    21.44    19.34    18.64    10.55    7.45     8.09     
 8.97     9.99     11.16    12.46    13.91    15.63    17.53    19.63    22.18    25.32    
 28.48    31.63    35.88    49.50    47.62    41.23    44.37    47.56    50.88    54.24    
 57.72    61.25    64.94    68.94    73.07    77.62    82.44    87.72    94.06    100.20   
 107.90   116.85   127.85   139.56   152.48   166.19   181.24   197.14   212.92   229.13   
 225.39   
444161.03 439897.87 433087.09 423852.09 411720.88 395786.94 375219.89 349532.86 318445.82 283884.60 
 250118.92 220219.40 194449.33 172022.76 151632.77 133505.26 118196.32 105859.86 93552.68 83671.81 
 75201.97 68416.62 62374.05 56975.35 51861.50 47112.18 42412.99 37888.01 33497.41 29155.30 
 25143.88 21674.31 18835.11 16725.42 15310.72 14378.14 13646.34 13002.75 12432.30 11892.27 
 11435.13 10978.81 10561.64 10164.37 9829.90  9526.69  9234.12  8974.76  8729.24  8463.06  
 8195.06  7933.48  7684.33  7449.25  7215.89  6976.16  6735.58  6494.59  6257.99  6005.46  
 5751.21  5504.01  5252.20  5008.72  4756.55  4503.50  4257.22  4016.98  3777.99  3545.80  
 3308.47  3086.67  2877.94  2679.50  2490.32  2318.37  2146.97  1973.59  1825.32  1688.44  
 1568.01  1456.10  1350.24  1253.08  1175.05  1097.21  1019.37  954.02   893.04   851.11   
 812.41   769.05   728.35   692.71   661.14   632.44   607.37   585.46   565.52   547.44   
 530.75   515.79   501.45   488.45   476.27   463.92   451.79   440.39   429.72   419.28   
 408.84   398.62   388.65   379.12   369.59   360.54   351.74   343.36   334.78   326.38   
 318.70   310.74   302.90   295.44   287.13   278.26   269.29   260.11   250.78   241.34   
 231.60   220.09   208.27   196.27   184.66   172.84   160.97   148.97   136.24   122.72   
 109.18   93.52    65.31    24.26    16.13    15.19    14.95    14.95    17.03    19.41    
 22.00    24.76    27.73    30.91    34.16    37.53    41.35    45.46    49.40    53.99    
 71.85    63.16    63.78    68.37    73.20    78.31    83.53    89.00    94.83    101.01   
 107.66   115.04   123.62   133.20   144.25   157.30   171.51   187.31   203.53   220.91   
 225.39   
444161.03 439707.60 431440.50 419506.16 402994.49 381350.44 354139.64 321174.70 283212.68 245245.48 
 207371.12 178157.13 154497.89 135567.93 121276.12 109882.12 100601.71 92519.19 85202.90 78928.23 
 72790.03 66671.95 60228.54 53493.50 46669.05 39929.51 33747.13 28562.06 25362.20 22180.24 
 20407.97 18950.84 17763.74 16759.52 15907.63 15078.07 14321.39 13639.17 13028.18 12453.25 
 11900.42 11397.58 10947.53 10532.54 10155.82 9782.74  9451.62  9133.81  8831.39  8551.76  
 8281.77  8020.32  7773.69  7535.79  7311.32  7099.23  6890.89  6660.08  6414.83  6158.92  
 5910.57  5662.88  5403.11  5131.45  4862.52  4595.62  4326.10  4071.42  3827.56  3589.33  
 3356.10  3142.55  2944.86  2742.29  2539.72  2337.45  2164.19  1999.64  1850.61  1702.02  
 1570.62  1442.53  1326.96  1223.09  1137.56  1056.44  985.88   916.84   860.20   820.39   
 785.74   749.06   710.78   675.39   644.55   618.65   597.58   579.18   562.25   546.54   
 532.82   520.57   509.79   499.65   490.07   480.55   471.85   463.57   455.81   447.44   
 440.10   431.83   424.29   416.10   408.38   400.01   391.30   382.64   374.49   365.83   
 357.75   349.82   342.15   334.26   326.20   318.14   310.16   302.06   293.96   286.15   
 278.05   270.01   262.08   253.85   246.03   236.07   226.12   216.06   205.56   194.54   
 182.59   170.93   158.71   143.77   125.44   114.14   106.39   96.37    50.05    27.71    
 27.09    26.22    24.59    26.47    30.00    33.75    37.65    41.76    46.23    51.02    
 56.22    61.98    67.51    79.94    92.58    81.65    87.82    94.27    100.70   107.04   
 113.42   119.84   127.18   134.54   143.23   153.36   166.26   180.97   197.32   215.20   
 225.39   
444161.03 438393.18 427721.85 411993.89 390812.93 361883.28 324656.94 281788.75 239971.63 202741.77 
 172815.39 149348.44 132254.32 119557.55 110415.86 101301.88 94622.13 88946.77 83545.23 77673.27 
 70602.29 62692.24 54356.67 45836.00 38209.62 32437.89 28749.72 26367.43 24429.48 22787.44 
 21353.20 20019.45 18804.91 17764.97 16793.62 15933.32 15117.36 14313.59 13567.22 12827.14 
 12173.80 11734.69 11297.62 10860.55 10491.71 10103.07 9751.85  9388.55  9073.17  8758.56  
 8463.19  8170.34  7869.53  7593.82  7339.12  7102.61  6889.05  6692.48  6491.26  6265.98  
 6010.10  5753.48  5470.60  5175.07  4882.23  4616.98  4359.19  4110.65  3866.20  3632.18  
 3406.25  3190.39  2949.64  2723.22  2522.91  2339.24  2168.51  2001.50  1834.52  1690.33  
 1550.34  1424.39  1308.56  1215.47  1134.09  1052.82  978.49   906.26   852.03   813.29   
 778.13   739.73   696.43   659.64   627.22   600.71   579.30   561.89   546.50   532.38   
 519.34   508.85   500.67   492.81   485.59   478.90   471.89   465.54   459.81   453.64   
 447.31   441.52   435.10   428.63   422.29   415.65   409.18   402.34   394.49   386.54   
 378.51   370.74   363.18   356.05   348.76   341.72   334.90   327.87   319.99   312.56   
 304.97   296.89   289.03   280.66   272.49   261.18   246.36   237.46   229.33   221.21   
 212.04   202.06   193.36   184.89   176.25   167.22   154.74   143.31   134.61   120.09   
 105.53   31.00    27.69    28.49    30.28    33.25    37.87    43.04    48.31    54.23    
 60.74    67.85    74.85    82.09    89.22    119.00   97.56    104.08   110.74   117.06   
 122.90   128.57   134.07   139.70   146.03   153.76   163.75   176.19   190.75   207.95   
 225.39   
444161.03 438600.59 427809.71 411228.19 388116.04 355967.65 316164.86 275218.77 234272.64 193461.43 
 165525.25 145243.72 130064.94 118404.90 109236.37 101961.23 95959.97 90473.54 84923.90 78721.56 
 70891.45 61740.69 52602.95 43952.51 36966.39 32559.16 29762.95 27672.04 25955.91 24239.78 
 22526.70 21114.47 19866.51 18768.72 17773.05 16764.93 15785.65 14848.92 13966.55 13190.92 
 12497.30 11917.99 11523.01 11127.07 10641.11 10257.30 9897.12  9542.69  9203.02  8895.70  
 8622.55  8305.52  7989.12  7722.69  7474.57  7251.08  7050.71  6845.57  6642.80  6437.14  
 6222.77  5981.27  5707.86  5402.88  5124.54  4842.82  4577.13  4316.59  4051.35  3794.88  
 3537.36  3291.96  3025.59  2807.28  2603.23  2399.28  2205.95  2028.21  1859.87  1713.52  
 1563.91  1433.75  1313.24  1217.07  1128.34  1044.83  969.76   897.55   839.69   799.22   
 763.50   726.15   681.55   641.26   606.48   579.02   556.94   538.89   523.78   510.88   
 499.37   489.48   481.84   475.02   469.12   463.73   458.52   453.95   448.99   443.83   
 438.83   433.74   428.52   423.18   418.26   413.56   408.34   402.78   397.59   391.55   
 385.27   379.49   373.96   368.04   361.60   354.90   348.03   341.25   334.42   327.33   
 320.02   312.34   304.38   295.90   287.42   278.97   268.51   252.08   243.89   235.71   
 227.53   219.42   211.26   202.87   194.35   185.52   176.28   167.62   158.73   150.41   
 140.45   111.11   29.58    30.61    32.11    34.69    39.61    45.65    52.24    59.04    
 66.97    75.23    83.50    92.32    100.72   121.32   124.67   116.54   122.19   127.79   
 132.93   138.06   142.70   146.94   151.04   156.13   163.69   174.29   188.09   204.41   
 225.39   
444161.03 437770.98 426137.53 408947.45 386158.51 355353.91 317082.14 275450.30 236837.01 203601.41 
 176993.61 156073.36 139880.59 127058.59 118499.12 109973.00 101446.87 95298.29 89462.18 82932.24 
 75255.51 66293.18 56935.23 47676.98 39937.40 34501.43 31157.30 28906.03 26917.76 25106.13 
 23466.40 21927.24 20555.32 19279.95 18140.11 17128.22 16188.73 15281.52 14408.66 13596.98 
 12865.04 12224.90 11778.12 11333.13 10888.14 10451.84 10086.71 9697.67  9374.74  9058.36  
 8770.96  8455.71  8134.17  7852.69  7588.46  7333.60  7103.33  6892.95  6674.30  6445.93  
 6190.16  5917.63  5638.62  5332.67  5020.44  4745.48  4486.53  4234.13  3973.76  3726.58  
 3496.38  3273.15  3036.95  2799.21  2595.15  2406.26  2230.35  2053.76  1879.98  1730.72  
 1587.29  1458.37  1338.01  1238.48  1156.26  1074.21  992.16   919.42   858.70   817.06   
 780.82   744.75   702.85   664.23   631.09   603.26   581.31   562.71   546.98   532.45   
 519.66   508.91   500.35   492.92   485.42   478.75   472.22   466.11   460.09   454.33   
 448.28   442.04   436.02   429.96   423.47   417.45   411.43   405.08   397.42   389.70   
 381.81   374.18   366.24   358.43   350.93   343.43   336.06   328.47   320.69   313.01   
 305.08   296.28   287.34   278.62   270.03   257.98   245.16   237.27   229.16   221.01   
 212.14   202.99   194.26   184.94   175.39   165.28   150.66   139.25   130.38   110.18   
 89.88    30.58    29.41    30.64    33.34    38.66    45.57    52.66    59.80    67.88    
 76.76    86.19    95.58    104.54   118.47   142.74   123.78   129.69   135.31   139.80   
 143.50   147.42   151.18   154.40   157.69   161.96   168.44   177.24   188.60   202.80   
 225.39   
444161.03 438702.69 428800.98 414844.96 396234.37 372451.09 343252.48 311387.42 278332.06 247721.29 
 217161.08 191329.84 169661.31 151649.33 136655.93 124287.38 114045.43 105301.96 97489.94 90477.33 
 83245.53 75818.14 67875.33 59164.03 50430.06 42152.53 35358.67 30551.19 27100.56 24943.65 
 22792.66 21225.77 19856.97 18684.75 17607.91 16624.69 15686.87 14893.78 14160.40 13490.80 
 12855.31 12287.77 11788.47 11315.16 10869.36 10442.64 10035.60 9665.49  9330.95  9018.91  
 8710.29  8419.86  8140.52  7882.89  7641.97  7415.31  7206.96  6984.04  6749.56  6487.47  
 6231.58  5958.02  5681.54  5396.70  5115.85  4836.88  4542.40  4262.29  4010.35  3765.99  
 3517.13  3295.69  3085.88  2876.81  2662.28  2448.03  2260.61  2088.59  1928.54  1780.06  
 1634.76  1502.95  1375.95  1261.72  1167.87  1085.03  1009.23  939.15   873.75   825.51   
 789.57   755.53   716.56   678.78   645.42   617.25   593.70   573.54   555.60   539.24   
 525.32   513.37   502.53   492.10   482.54   473.63   465.33   457.08   448.95   441.16   
 433.55   425.82   418.13   410.66   403.49   395.66   387.40   378.93   370.71   362.15   
 353.74   345.27   337.10   329.10   321.15   312.89   304.81   296.55   288.81   280.55   
 272.17   263.89   255.27   245.88   236.49   227.10   217.64   206.45   195.38   184.92   
 174.96   163.88   153.02   138.43   126.13   114.61   102.20   81.03    29.77    24.71    
 25.63    26.68    29.02    34.29    40.14    46.49    53.30    60.48    68.23    76.62    
 85.76    95.12    105.54   132.15   117.90   124.09   130.11   135.69   140.52   144.91   
 149.07   152.65   155.52   158.69   162.37   167.09   173.25   181.26   191.34   203.92   
 225.39   
444161.03 439777.75 432060.24 421688.38 409225.17 393959.83 375652.52 354135.96 329448.40 301152.80 
 270756.46 240262.17 212353.66 188168.39 167835.05 150239.65 135930.20 123155.49 112881.87 102632.30 
 92382.74 83759.84 75954.40 68318.95 61158.13 54593.90 48225.35 42256.61 36465.16 30973.27 
 26330.27 22692.46 20001.68 18094.41 16730.63 15773.06 14965.97 14267.49 13619.36 13021.44 
 12491.53 11966.25 11497.25 11028.78 10628.22 10260.10 9920.07  9614.13  9339.12  9053.05  
 8765.27  8472.26  8190.87  7929.73  7694.97  7453.59  7200.86  6945.22  6677.86  6401.94  
 6132.81  5860.43  5598.57  5338.41  5075.46  4812.88  4557.55  4311.16  4056.78  3804.75  
 3559.60  3311.68  3089.35  2871.04  2666.46  2476.91  2298.37  2118.72  1944.30  1798.14  
 1663.11  1539.05  1422.33  1314.04  1218.00  1137.67  1057.49  986.43   920.35   865.11   
 825.16   784.73   741.82   702.41   667.84   637.57   611.06   587.92   566.68   547.10   
 529.40   513.94   498.66   485.08   471.86   459.43   447.34   435.69   424.31   413.63   
 402.91   392.79   382.25   372.05   361.85   352.53   343.29   334.34   325.68   316.97   
 308.09   299.51   290.50   281.44   272.29   262.97   253.82   245.20   236.52   227.29   
 217.97   207.26   195.63   183.64   171.95   160.40   148.93   137.73   124.11   110.47   
 96.83    81.53    44.91    23.57    18.34    16.71    16.57    18.57    21.63    25.18    
 29.16    33.59    38.52    44.06    50.05    56.60    63.91    71.68    79.61    96.09    
 98.90    99.55    105.96   112.54   118.41   124.39   129.78   134.87   139.87   144.27   
 147.64   151.16   154.96   159.42   164.52   170.44   177.29   185.57   195.43   207.12   
 225.39   
444161.03 442091.28 437941.48 432313.78 425794.00 417625.36 407512.28 394012.81 375970.87 354437.21 
 330307.75 304770.55 277571.02 250768.51 224000.67 200199.71 178659.65 159933.08 142279.99 125597.42 
 109977.87 95623.80 83124.00 73337.21 65718.55 59438.68 54437.11 50287.60 46483.58 42750.32 
 38975.19 35141.31 31604.87 28059.21 25123.17 22189.34 19452.41 17080.10 15100.79 13503.90 
 12310.75 11552.56 11015.83 10577.18 10207.38 9881.29  9582.27  9294.25  9020.56  8768.65  
 8524.59  8298.24  8075.29  7835.60  7583.24  7335.02  7060.88  6805.28  6519.51  6230.48  
 5937.85  5647.12  5346.95  5063.15  4803.42  4553.11  4309.18  4059.38  3825.35  3599.42  
 3378.37  3162.76  2965.82  2784.43  2603.03  2421.78  2254.92  2092.45  1943.62  1805.93  
 1674.58  1553.03  1436.34  1336.23  1247.90  1165.39  1087.99  1016.70  953.29   893.78   
 842.69   801.33   755.56   710.54   669.67   633.09   599.84   567.63   538.10   510.78   
 486.12   463.07   441.78   421.58   403.00   385.86   370.02   354.49   339.37   325.89   
 313.38   301.00   289.01   277.11   265.56   254.35   242.35   230.35   218.78   207.20   
 195.58   183.70   172.25   161.55   151.34   141.04   130.32   119.32   107.57   94.91    
 81.81    66.11    48.43    29.71    21.50    19.25    13.42    9.12     9.65     10.56    
 11.66    12.88    14.26    15.91    17.82    20.15    22.75    25.95    29.85    34.27    
 39.06    44.84    58.87    54.40    57.49    62.61    68.33    74.29    80.45    86.53    
 92.50    98.35    104.07   109.92   115.30   120.35   125.68   130.42   134.96   139.53   
 144.20   149.31   154.80   160.83   167.50   174.68   182.55   191.37   201.22   212.18   
 225.39   
444161.03 444050.90 442656.53 440773.95 438130.91 433582.12 424873.86 411791.81 398668.14 382482.05 
 363960.80 342434.83 319529.85 296573.78 271705.98 247261.28 222806.95 199080.78 175759.32 151527.26 
 127922.87 110944.29 94024.81 77105.34 67838.93 60584.77 54750.94 50138.66 46011.26 42107.05 
 38590.33 35109.05 31850.64 28610.14 25580.52 22632.26 20082.50 17770.72 15848.11 14181.28 
 12874.41 11741.86 10973.76 10209.05 9636.15  9170.16  8784.49  8442.24  8141.47  7853.54  
 7569.70  7288.75  7026.75  6783.45  6494.41  6190.44  5904.47  5614.23  5321.94  5023.98  
 4739.70  4470.78  4219.76  3998.31  3790.44  3592.76  3399.61  3204.08  3015.78  2836.02  
 2665.60  2502.11  2343.95  2188.62  2046.20  1908.34  1781.39  1655.76  1539.81  1428.78  
 1323.43  1227.01  1139.18  1051.42  972.50   897.31   824.37   757.60   698.49   644.26   
 590.81   549.13   510.41   472.15   436.63   402.27   369.60   339.33   311.78   284.94   
 260.67   238.46   217.66   198.86   180.17   162.52   146.49   131.21   117.79   104.39   
 93.91    84.63    76.50    68.24    59.24    49.73    41.01    33.99    27.67    14.79    
 6.48     5.70     5.69     5.77     5.96     6.18     6.50     6.84     7.16     7.76     
 8.50     9.36     10.26    10.96    12.09    13.46    14.01    14.10    14.93    15.95    
 17.19    18.65    20.22    22.23    24.56    27.66    29.81    33.18    36.85    40.42    
 44.00    46.90    51.42    54.87    59.63    64.47    69.54    74.68    79.82    85.03    
 90.18    95.35    100.48   105.66   110.83   116.07   121.54   127.45   133.97   139.85   
 146.06   152.82   160.20   168.10   176.50   185.63   195.18   205.52   215.93   226.78   
 225.39   
444161.03 446040.96 446926.75 447290.16 446112.73 439542.70 427872.64 417199.48 403199.08 387703.68 
 370893.49 352298.43 333132.41 311127.34 287202.23 260934.35 232200.41 202656.66 172906.48 145236.53 
 122858.95 105719.01 88639.77 76768.62 66878.47 59129.00 52460.37 47029.36 42286.91 38020.23 
 34340.51 30938.92 27788.08 24479.06 21576.93 18899.56 16609.98 14426.82 12697.92 11543.16 
 10395.72 9248.28  8553.39  7970.29  7450.60  7007.32  6677.68  6397.92  6104.33  5784.67  
 5474.36  5143.81  4794.30  4449.73  4126.33  3837.43  3560.88  3317.54  3091.71  2874.05  
 2653.67  2446.20  2261.37  2092.34  1928.29  1774.25  1628.30  1489.61  1354.98  1224.79  
 1110.63  996.64   885.81   782.77   688.39   603.94   525.18   449.96   381.04   319.96   
 266.77   219.43   175.36   137.44   105.48   73.59    42.71    17.37    6.23     5.70     
 5.56     5.41     5.39     5.40     5.34     5.27     5.20     5.14     5.07     5.19     
 5.27     5.31     5.36     5.50     5.78     6.09     6.39     6.59     6.87     7.22     
 7.56     7.84     8.26     8.67     9.02     9.51     10.02    10.59    11.12    11.54    
 11.98    12.46    12.95    13.55    14.20    14.93    15.76    16.72    17.79    19.00    
 20.34    21.83    23.61    25.64    27.81    30.24    33.03    36.26    39.97    44.17    
 48.95    54.46    60.86    68.05    75.93    84.78    94.22    104.14   114.50   125.63   
 137.22   148.77   160.16   171.12   182.07   193.27   203.99   214.19   224.15   234.28   
 244.42   252.68   260.81   268.28   275.27   281.40   286.79   292.34   295.92   298.53   
 300.06   300.38   299.83   298.02   294.70   290.20   284.75   278.43   270.68   261.24   
 225.39   
444161.03 446180.75 447010.93 447200.68 446321.56 440731.34 429066.71 417078.43 404221.68 386516.58 
 369577.70 349625.08 323295.15 294388.19 264127.39 233866.61 203640.98 177107.33 149100.47 123477.76 
 101983.13 84323.97 70568.11 58878.69 49946.16 43769.59 38915.30 34686.30 31149.55 27097.33 
 24288.96 21482.13 18874.69 16106.84 13831.86 11674.16 9857.38  8264.44  6985.04  5953.67  
 5129.35  4486.81  3951.23  3555.23  3200.60  2866.30  2531.99  2197.96  1893.79  1588.06  
 1286.88  1029.86  829.87   668.09   557.17   472.46   401.26   338.60   284.07   243.33   
 202.68   171.86   145.12   122.02   102.30   86.22    71.36    59.68    50.73    43.76    
 37.71    32.39    28.34    24.77    20.93    14.04    12.77    11.64    10.49    9.49     
 8.41     7.39     6.40     5.31     4.14     3.32     3.20     3.27     3.36     3.46     
 3.56     3.68     3.81     3.96     4.12     4.30     4.49     4.69     4.91     5.15     
 5.38     5.60     5.86     6.14     6.43     6.73     7.04     7.38     7.73     8.12     
 8.49     8.89     9.31     9.71     10.15    10.63    11.12    11.63    12.13    12.67    
 13.25    13.87    14.57    15.34    16.16    17.19    18.31    19.55    20.88    22.36    
 23.97    25.70    27.52    29.45    31.70    34.37    37.29    40.49    44.09    48.23    
 52.98    57.92    63.88    70.74    78.37    86.86    96.04    105.89   117.00   128.12   
 139.54   151.22   162.68   174.83   186.52   198.19   209.52   220.54   231.48   242.02   
 252.00   261.59   270.44   278.86   286.75   293.62   299.44   305.03   309.31   312.30   
 313.93   313.71   312.52   310.12   306.03   300.67   293.28   284.87   274.88   263.74   
 225.39   
444161.03 445611.43 445626.83 444132.87 441168.17 435215.39 418544.81 385806.18 356049.16 330610.37 
 300902.69 273619.37 240863.49 204941.39 179324.12 153502.62 126218.21 108024.25 89946.23 71868.22 
 58005.83 43664.22 36161.58 31312.99 27624.28 23971.57 21395.62 18998.59 16922.13 14912.49 
 12923.25 10561.36 8194.98  5828.60  4599.50  3310.79  2629.69  1912.93  1466.24  1156.67  
 848.83   540.99   396.58   295.77   226.60   181.19   147.73   127.06   106.53   85.99    
 73.57    64.11    56.60    50.75    45.85    41.64    38.23    34.94    32.32    30.43    
 28.45    26.62    24.78    22.29    15.92    12.85    11.91    11.16    10.52    9.90     
 9.35     8.85     8.41     7.96     7.51     7.10     6.68     6.25     5.82     5.41     
 4.98     4.56     4.15     3.84     3.67     3.65     3.72     3.84     3.96     4.08     
 4.22     4.37     4.52     4.70     4.90     5.12     5.35     5.56     5.81     6.07     
 6.34     6.61     6.89     7.20     7.51     7.83     8.15     8.50     8.84     9.20     
 9.56     9.93     10.32    10.71    11.12    11.55    12.00    12.46    12.95    13.43    
 13.96    14.55    15.20    15.90    16.65    17.50    18.43    19.45    20.58    21.82    
 23.15    24.63    26.25    28.09    30.10    32.41    35.10    38.18    41.68    45.66    
 50.19    55.22    61.16    67.93    75.50    84.00    93.26    103.25   113.97   125.45   
 137.59   150.01   162.83   176.11   189.42   202.65   215.90   228.81   241.93   255.06   
 266.52   277.40   287.18   296.07   304.23   311.18   317.04   321.56   325.08   327.13   
 327.80   326.99   324.41   320.71   314.75   307.83   298.46   287.73   275.31   261.21   
 225.39   
444161.03 445254.19 444117.52 440161.09 433282.07 404117.75 369502.61 340654.79 310326.47 270888.83 
 236593.89 202270.94 164619.02 134739.23 109347.27 80904.07 66657.39 57509.12 49937.54 43612.00 
 37681.17 33069.72 27966.48 22863.24 17767.25 13520.70 10792.38 7442.31  5510.62  4103.24  
 2695.86  1294.98  748.65   538.53   355.60   270.13   185.00   137.76   112.45   94.95    
 79.65    66.67    56.27    50.24    44.98    40.23    35.26    31.78    28.95    26.73    
 25.01    23.30    22.03    21.08    20.12    18.92    15.93    11.31    9.55     9.08     
 8.80     8.52     8.22     7.90     7.60     7.31     7.07     6.86     6.66     6.48     
 6.31     6.10     5.89     5.66     5.41     5.16     4.93     4.68     4.46     4.24     
 4.03     3.83     3.66     3.57     3.58     3.63     3.72     3.83     3.94     4.07     
 4.21     4.35     4.49     4.67     4.86     5.07     5.29     5.51     5.74     5.99     
 6.24     6.50     6.77     7.06     7.37     7.67     7.98     8.30     8.62     8.95     
 9.28     9.62     9.97     10.34    10.70    11.11    11.54    11.97    12.42    12.91    
 13.42    13.95    14.54    15.16    15.82    16.58    17.41    18.38    19.43    20.57    
 21.85    23.31    24.90    26.64    28.57    30.69    33.12    35.85    38.84    42.23    
 46.18    50.63    55.74    61.55    68.18    75.76    84.26    93.66    104.01   116.34   
 128.70   142.30   156.17   171.60   187.15   203.31   219.72   235.53   251.25   266.23   
 280.34   293.19   305.00   315.43   324.25   331.41   336.81   340.78   343.45   344.31   
 343.56   341.12   337.16   331.30   323.74   314.15   303.26   290.29   275.25   258.81   
 225.39   
444161.03 444523.91 441304.08 433878.09 405131.62 363964.39 330841.03 291266.79 247960.25 209988.82 
 169528.53 134302.85 111077.80 87986.15 64894.51 56270.59 49184.53 43328.39 38338.72 31100.27 
 24497.26 18435.93 12479.00 9038.08  5625.42  3132.82  1415.32  915.83   428.72   290.86   
 215.10   160.72   133.10   105.80   78.50    75.11    56.98    51.19    43.73    40.31    
 33.01    27.59    25.89    23.95    22.43    20.66    19.44    18.08    17.12    16.44    
 15.27    12.48    9.69     8.57     7.99     7.50     7.08     6.98     7.07     7.13     
 7.03     6.82     6.64     6.41     6.24     6.06     5.90     5.73     5.52     5.36     
 5.18     5.02     4.86     4.73     4.58     4.43     4.30     4.16     4.05     3.93     
 3.84     3.75     3.71     3.70     3.71     3.78     3.86     3.95     4.06     4.16     
 4.30     4.42     4.58     4.74     4.93     5.12     5.32     5.52     5.74     5.97     
 6.22     6.47     6.73     7.00     7.28     7.57     7.86     8.17     8.50     8.84     
 9.19     9.54     9.94     10.33    10.73    11.16    11.59    12.01    12.46    12.92    
 13.40    13.88    14.39    14.95    15.53    16.16    16.87    17.64    18.49    19.45    
 20.51    21.78    23.26    24.92    26.82    28.94    31.36    34.09    37.12    40.45    
 44.11    48.07    52.57    57.86    63.94    70.86    78.62    87.35    97.09    108.07   
 120.97   135.08   150.21   166.06   182.47   200.13   218.89   238.16   257.45   275.02   
 292.65   308.92   322.95   334.89   345.39   352.97   357.98   360.87   361.84   361.00   
 358.12   353.67   347.28   339.17   329.61   317.98   304.27   289.50   272.67   254.27   
 225.39   
444161.03 444444.77 440616.35 431322.03 393662.32 348179.87 309638.14 262986.56 216301.81 165286.00 
 126895.94 93496.67 67624.53 58260.84 50958.91 45306.92 40697.70 36687.52 29436.41 22185.30 
 14963.08 11485.19 6257.80  3621.50  1004.18  572.37   144.82   181.10   121.22   67.94    
 64.67    40.21    28.51    23.04    19.92    17.81    16.44    15.20    14.30    13.50    
 12.57    11.97    11.40    10.77    10.31    10.00    9.70     9.42     8.55     6.58     
 5.83     5.61     5.92     6.26     6.23     6.10     5.98     5.82     5.56     5.37     
 5.17     5.06     4.86     4.71     4.57     4.45     4.35     4.23     4.13     4.06     
 3.99     3.92     3.85     3.81     3.74     3.69     3.62     3.57     3.54     3.48     
 3.46     3.46     3.48     3.49     3.53     3.59     3.66     3.73     3.81     3.90     
 4.02     4.13     4.27     4.42     4.59     4.76     4.95     5.15     5.37     5.59     
 5.83     6.07     6.31     6.56     6.83     7.12     7.41     7.70     8.00     8.31     
 8.63     8.98     9.34     9.69     10.08    10.47    10.89    11.35    11.78    12.27    
 12.76    13.27    13.80    14.34    14.91    15.52    16.15    16.82    17.56    18.33    
 19.18    20.17    21.30    22.60    24.17    26.01    28.22    30.78    33.64    36.88    
 40.57    44.58    49.02    53.88    59.31    65.44    72.34    80.11    89.19    99.80    
 111.94   126.67   141.43   158.38   176.62   195.69   215.75   235.77   256.35   276.54   
 296.20   314.95   332.30   347.47   359.86   369.45   375.77   378.92   379.29   376.83   
 371.96   365.38   357.12   347.11   335.32   321.29   305.94   288.87   270.31   250.23   
 225.39   
444161.03 443827.19 438814.01 428346.17 385503.85 339885.35 297897.79 243000.87 196254.05 147441.46 
 117267.14 87310.61 57354.10 49448.40 43722.87 39394.04 35869.97 27124.34 22848.84 18090.78 
 12078.20 7778.02  3498.11  1458.08  972.43   503.58   34.73    22.57    18.92    17.60    
 16.70    15.24    14.23    13.20    12.17    10.94    10.01    9.17     8.71     8.58     
 8.42     8.22     8.06     7.82     7.30     6.92     6.66     6.27     5.82     5.62     
 5.30     5.04     4.86     4.75     4.62     4.49     4.34     4.27     4.23     4.21     
 4.18     4.16     4.13     4.13     4.13     4.13     4.11     4.09     4.08     4.06     
 4.04     4.01     3.99     3.96     3.92     3.89     3.87     3.84     3.81     3.78     
 3.79     3.79     3.80     3.80     3.81     3.81     3.85     3.90     3.98     4.07     
 4.17     4.31     4.43     4.58     4.74     4.92     5.09     5.29     5.49     5.70     
 5.92     6.15     6.40     6.65     6.93     7.22     7.50     7.80     8.11     8.44     
 8.77     9.12     9.49     9.86     10.26    10.67    11.11    11.55    12.02    12.51    
 13.01    13.55    14.11    14.69    15.29    15.92    16.62    17.35    18.13    18.97    
 19.88    20.89    22.01    23.30    24.81    26.58    28.72    31.28    34.25    37.64    
 41.36    45.45    50.06    55.24    60.91    67.05    73.78    81.35    90.30    101.02   
 113.30   127.08   142.23   159.36   178.51   198.47   218.88   240.44   262.02   283.12   
 302.87   321.45   339.11   354.70   366.88   375.91   381.43   383.39   381.91   377.20   
 369.97   361.07   350.74   339.22   326.75   312.94   297.52   281.27   263.72   244.56   
 225.39   
