IESNA:LM-63-2002
[TEST] 1
[TESTLAB] AOK
[TESTDATE] 2022-05-31
[ISSUEDATE] 2022-05-31 14:21:47
[NEARFIELD] 
[LAMPPOSITION] 0,0
[OTHER] EVERFINE GO-2000A_V1 SYSTEM
[MANUFAC] AOK
[LUMCAT] A
[LUMINAIRE] AOK-1200WiSF-HV-S5-00-5070-30D-P
[LAMPCAT] B
[LAMP] 5050
[BALLAST] E
[BALLASTCAT] F
[OTHER] 
[OTHER] Gamma(deg)    Fz(lm)      Ft(lm)     %Lum    %Lamp
[OTHER]   0- 10     33717.04    33717.04    19.18    19.18
[OTHER]  10- 20     55077.76    88794.80    50.50    50.50
[OTHER]  20- 30     33923.72   122718.52    69.79    69.79
[OTHER]  30- 40     22279.27   144997.80    82.46    82.46
[OTHER]  40- 50     13909.41   158907.21    90.37    90.37
[OTHER]  50- 60      7824.67   166731.87    94.82    94.82
[OTHER]  60- 70      4376.64   171108.52    97.31    97.31
[OTHER]  70- 80      2211.32   173319.84    98.57    98.57
[OTHER]  80- 90       956.79   174276.63    99.11    99.11
[OTHER]  90-100       471.92   174748.55    99.38    99.38
[OTHER] 100-110       298.75   175047.31    99.55    99.55
[OTHER] 110-120       217.67   175264.98    99.68    99.68
[OTHER] 120-130       159.94   175424.92    99.77    99.77
[OTHER] 130-140       116.30   175541.22    99.83    99.83
[OTHER] 140-150        93.30   175634.52    99.89    99.89
[OTHER] 150-160        89.47   175723.99    99.94    99.94
[OTHER] 160-170        78.87   175802.86    99.98    99.98
[OTHER] 170-180        30.16   175833.03   100.00   100.00
[OTHER] 
TILT=NONE
1 1.7583e+005 1 181 25 1 2 0.150 0.200 0.000
1.000 1 1209.83
0.0    1.0    2.0    3.0    4.0    5.0    6.0    7.0    8.0    9.0    
 10.0   11.0   12.0   13.0   14.0   15.0   16.0   17.0   18.0   19.0   
 20.0   21.0   22.0   23.0   24.0   25.0   26.0   27.0   28.0   29.0   
 30.0   31.0   32.0   33.0   34.0   35.0   36.0   37.0   38.0   39.0   
 40.0   41.0   42.0   43.0   44.0   45.0   46.0   47.0   48.0   49.0   
 50.0   51.0   52.0   53.0   54.0   55.0   56.0   57.0   58.0   59.0   
 60.0   61.0   62.0   63.0   64.0   65.0   66.0   67.0   68.0   69.0   
 70.0   71.0   72.0   73.0   74.0   75.0   76.0   77.0   78.0   79.0   
 80.0   81.0   82.0   83.0   84.0   85.0   86.0   87.0   88.0   89.0   
 90.0   91.0   92.0   93.0   94.0   95.0   96.0   97.0   98.0   99.0   
 100.0  101.0  102.0  103.0  104.0  105.0  106.0  107.0  108.0  109.0  
 110.0  111.0  112.0  113.0  114.0  115.0  116.0  117.0  118.0  119.0  
 120.0  121.0  122.0  123.0  124.0  125.0  126.0  127.0  128.0  129.0  
 130.0  131.0  132.0  133.0  134.0  135.0  136.0  137.0  138.0  139.0  
 140.0  141.0  142.0  143.0  144.0  145.0  146.0  147.0  148.0  149.0  
 150.0  151.0  152.0  153.0  154.0  155.0  156.0  157.0  158.0  159.0  
 160.0  161.0  162.0  163.0  164.0  165.0  166.0  167.0  168.0  169.0  
 170.0  171.0  172.0  173.0  174.0  175.0  176.0  177.0  178.0  179.0  
 180.0  
0.0    15.0   30.0   45.0   60.0   75.0   90.0   105.0  120.0  135.0  
 150.0  165.0  180.0  195.0  210.0  225.0  240.0  255.0  270.0  285.0  
 300.0  315.0  330.0  345.0  360.0  
391459.00 388773.80 389180.72 388828.74 364727.13 339220.05 313315.61 276133.38 252737.63 220211.56 
 187257.97 155528.07 137594.00 126904.56 115562.77 104213.18 92863.59 71297.38 54667.78 41137.47 
 28842.40 17827.34 10051.35 7515.30  5037.70  2560.09  82.48    41.07    34.87    30.81    
 27.17    25.28    23.31    20.86    18.43    16.54    14.87    13.34    12.38    11.67    
 11.42    11.24    11.25    10.77    10.37    10.32    10.76    11.31    11.88    12.62    
 13.25    13.68    14.05    14.55    15.05    15.14    15.01    14.70    14.34    13.92    
 13.39    12.78    12.26    11.75    11.21    10.74    10.44    10.21    9.93     9.71     
 9.56     9.39     9.25     9.09     8.97     8.86     8.66     8.55     8.45     8.31     
 8.35     8.38     8.42     8.46     8.49     8.53     8.73     8.89     9.08     9.35     
 9.62     9.89     10.15    10.43    10.77    11.12    11.50    11.93    12.39    12.87    
 13.36    13.88    14.47    15.10    15.77    16.50    17.25    18.04    18.91    19.87    
 20.89    22.04    23.31    24.65    26.10    27.67    29.39    31.21    33.18    35.32    
 37.61    40.01    42.66    45.52    48.50    51.67    55.19    59.00    63.03    67.33    
 71.82    76.64    81.84    87.48    93.44    99.73    106.41   113.87   121.89   130.48   
 139.70   149.70   160.60   172.17   184.38   197.38   211.13   225.16   240.91   256.67   
 272.52   288.50   303.67   318.44   333.28   347.79   361.60   374.58   387.08   398.96   
 409.63   419.29   428.27   436.10   442.50   446.76   449.23   449.34   447.19   442.80   
 435.93   428.51   420.13   410.69   399.92   388.10   374.92   359.45   342.43   323.76   
 302.40   
391459.00 388308.82 386714.46 385891.81 378025.53 346769.09 321480.18 293947.48 264111.64 234275.84 
 204455.51 176510.71 141494.72 126690.42 114697.40 103030.65 91916.66 81309.91 61796.03 48356.61 
 37076.98 26844.70 16645.18 10458.54 5679.23  939.17   596.81   415.79   308.05   200.94   
 156.52   116.46   120.21   91.41    51.63    37.57    30.96    27.25    24.92    23.10    
 21.68    20.49    19.26    17.91    16.69    15.75    15.07    14.51    14.11    13.87    
 13.75    13.50    12.99    12.25    11.48    10.75    10.15    9.70     9.24     8.78     
 8.38     8.00     7.70     7.48     7.21     7.03     6.83     6.63     6.41     6.21     
 6.09     5.94     5.87     5.82     5.73     5.69     5.65     5.64     5.63     5.65     
 5.69     5.72     5.76     5.95     6.15     6.28     6.49     6.77     6.99     7.22     
 7.54     7.88     8.18     8.52     8.85     9.16     9.52     10.00    10.53    11.05    
 11.58    12.13    12.75    13.42    14.14    14.91    15.72    16.60    17.58    18.62    
 19.70    20.87    22.17    23.59    25.09    26.69    28.39    30.17    32.08    34.16    
 36.42    38.94    41.61    44.32    47.31    50.51    53.98    57.69    61.61    65.74    
 70.20    74.92    79.98    85.39    91.10    97.21    103.93   111.23   119.69   128.14   
 137.45   147.42   158.17   169.67   181.95   195.23   208.91   223.28   238.26   253.60   
 269.67   285.38   300.54   316.43   331.72   346.52   360.62   373.93   386.94   398.90   
 409.99   420.46   430.23   439.03   445.57   450.25   452.85   452.49   450.51   446.43   
 440.75   433.76   426.50   418.67   408.91   397.67   384.77   370.08   353.47   335.37   
 302.40   
391459.00 388289.09 385277.50 383379.54 380262.08 357567.72 331839.41 302468.05 274162.01 245710.86 
 217813.18 190636.18 160292.31 132930.02 117177.62 101548.78 85919.93 75313.38 65840.16 57287.51 
 44264.22 36383.52 28492.42 20148.44 15619.15 10981.65 6342.54  1703.43  1242.16  834.35   
 426.54   306.61   231.45   176.99   149.94   126.74   103.57   80.41    68.75    58.00    
 51.23    46.03    40.94    38.17    35.24    33.33    31.14    28.81    26.90    25.59    
 25.13    24.58    23.67    22.23    20.74    19.62    18.65    17.62    16.43    15.37    
 14.25    13.24    12.37    11.84    11.20    10.66    10.12    9.68     9.23     8.68     
 8.18     7.74     7.38     7.08     6.79     6.52     6.30     6.07     5.87     5.72     
 5.61     5.59     5.62     5.74     5.90     6.09     6.29     6.51     6.76     7.02     
 7.30     7.61     7.95     8.33     8.73     9.14     9.60     10.09    10.58    11.11    
 11.70    12.34    13.00    13.68    14.43    15.26    16.11    17.02    17.95    18.96    
 20.11    21.34    22.63    24.06    25.57    27.21    28.93    30.81    32.80    34.94    
 37.22    39.65    42.29    45.13    48.11    51.21    54.55    58.26    62.16    66.28    
 70.64    75.20    80.03    85.20    90.98    97.24    103.95   111.12   118.86   127.26   
 136.16   145.93   156.69   168.19   180.38   193.26   206.98   221.29   237.19   253.10   
 268.52   284.01   299.68   315.39   331.02   346.04   360.57   375.02   388.94   401.73   
 413.69   424.69   434.43   442.68   449.31   454.02   456.62   457.43   456.01   453.70   
 449.48   444.54   438.47   430.20   420.46   408.58   395.03   379.95   363.29   345.88   
 302.40   
391459.00 388557.25 384310.34 380958.06 375315.00 367075.52 349226.33 320539.73 297238.58 268221.19 
 239814.18 211473.02 191027.87 160209.26 137055.90 113360.80 93010.34 75063.41 65248.87 56725.50 
 50483.11 45150.99 40665.51 36529.93 30953.52 25268.22 19599.98 15789.69 12053.81 8856.99  
 6697.85  4789.33  2880.82  985.14   670.67   466.40   344.22   286.69   229.16   171.91   
 143.30   121.78   104.24   88.52    77.99    67.55    59.99    53.91    48.35    44.02    
 40.68    38.14    36.00    33.68    31.65    30.39    29.98    29.77    29.24    27.75    
 25.59    23.57    21.60    19.89    18.28    16.70    15.40    14.41    13.46    12.43    
 11.67    10.86    10.06    9.44     8.83     8.28     7.68     7.15     6.67     6.22     
 5.83     5.58     5.56     5.63     5.77     5.95     6.16     6.39     6.64     6.91     
 7.21     7.54     7.87     8.25     8.64     9.07     9.56     10.08    10.60    11.15    
 11.73    12.35    13.03    13.76    14.55    15.35    16.21    17.16    18.16    19.21    
 20.31    21.48    22.76    24.14    25.65    27.22    28.95    30.73    32.65    34.69    
 36.92    39.35    41.94    44.56    47.36    50.37    53.61    57.08    60.71    64.60    
 68.72    73.13    77.86    82.94    88.32    94.17    100.60   107.53   114.82   123.76   
 132.71   142.30   152.69   164.05   176.05   189.01   202.37   216.65   231.45   246.65   
 262.62   278.30   294.07   310.70   326.81   342.78   358.32   372.89   387.29   400.59   
 412.88   424.08   433.91   442.52   449.16   454.17   457.88   460.27   460.57   459.41   
 456.55   451.85   445.41   437.95   428.43   417.07   403.92   389.07   372.69   356.51   
 302.40   
391459.00 388848.91 385000.93 378472.86 370443.50 361348.57 351264.99 339182.52 323896.28 295851.64 
 266621.57 243822.04 216601.08 190921.44 165338.80 140035.65 122666.37 104998.80 87326.39 75153.04 
 63213.75 54887.64 47497.96 40321.26 36375.04 33036.91 29983.35 27258.39 24457.96 21993.93 
 19732.65 17501.61 15100.09 12187.96 10032.95 7886.56  6034.35  4929.22  3747.63  2808.97  
 2009.06  1350.91  1008.96  670.82   478.26   365.47   293.08   238.37   196.56   160.79   
 137.61   121.20   104.88   90.84    78.34    69.29    61.28    54.88    50.53    46.79    
 43.01    40.96    38.62    36.55    34.50    32.29    29.57    26.15    23.31    21.24    
 19.38    17.80    16.14    14.57    13.32    12.20    11.22    10.29    9.29     8.30     
 7.34     6.60     6.17     6.13     6.25     6.44     6.66     6.90     7.16     7.43     
 7.74     8.07     8.42     8.81     9.22     9.65     10.11    10.60    11.11    11.67    
 12.27    12.91    13.59    14.32    15.10    15.92    16.78    17.70    18.68    19.68    
 20.78    21.96    23.25    24.61    26.06    27.61    29.29    31.02    32.91    34.89    
 37.02    39.25    41.70    44.27    46.99    49.80    52.87    56.22    59.74    63.48    
 67.38    71.52    75.92    80.73    86.04    91.84    98.13    104.91   112.32   120.56   
 129.61   139.46   150.19   161.74   174.12   187.46   201.65   216.42   230.94   247.65   
 264.38   280.27   296.11   311.73   327.34   342.92   357.97   372.54   386.58   399.49   
 411.48   422.80   433.01   441.93   449.62   455.74   460.54   463.37   464.35   463.54   
 461.10   456.60   450.57   443.10   434.04   423.57   411.96   398.91   384.62   369.75   
 302.40   
391459.00 389517.48 386359.41 380935.76 371951.04 361639.79 350164.45 337834.79 323730.86 306940.00 
 288500.09 268525.65 246400.62 224269.53 201457.62 180061.70 160101.77 139097.76 120111.77 104669.50 
 92796.02 83428.16 74569.92 66584.89 60481.74 55309.78 50411.33 45358.23 40814.94 37096.96 
 33887.64 30988.41 28037.04 25557.94 23081.50 20922.84 18803.32 17041.79 15420.38 13838.03 
 12331.06 11059.11 9938.74  8882.50  7905.87  6923.21  6040.65  5190.63  4455.82  3729.09  
 3133.10  2537.11  1942.81  1517.76  1170.86  935.78   749.00   613.40   503.57   409.41   
 331.59   280.22   228.85   177.70   149.60   124.96   105.65   87.79    74.37    63.58    
 54.30    47.62    42.14    38.43    34.11    29.38    23.84    20.43    17.68    15.12    
 12.89    10.70    7.74     5.76     5.57     5.69     5.86     6.04     6.26     6.49     
 6.75     7.04     7.35     7.70     8.08     8.49     8.92     9.40     9.88     10.38    
 10.89    11.45    12.03    12.66    13.35    14.05    14.83    15.66    16.60    17.59    
 18.62    19.73    20.94    22.20    23.60    25.11    26.67    28.26    29.97    31.82    
 33.85    36.03    38.40    40.81    43.45    46.33    49.29    52.63    56.10    59.74    
 63.53    67.62    72.00    76.63    81.58    86.88    92.85    99.25    106.15   113.76   
 122.38   131.01   140.80   151.88   163.65   176.51   190.03   204.30   219.23   234.72   
 250.61   266.58   282.47   298.88   314.98   331.04   346.74   361.66   376.79   390.83   
 404.29   416.79   428.28   439.28   448.48   456.30   462.40   467.60   470.49   472.23   
 471.98   468.59   463.57   457.42   449.68   440.90   431.09   419.71   406.98   393.53   
 302.40   
391459.00 389760.64 387384.60 383527.02 375992.87 366510.93 356583.99 345230.16 331599.02 315651.65 
 297628.54 278342.03 257369.55 235192.41 213025.25 191716.10 171360.93 152514.28 135442.55 120933.17 
 108454.52 97946.61 89197.37 82009.75 75796.76 70205.25 64945.84 60180.08 55779.36 51705.26 
 47990.11 44624.59 41444.18 38485.44 35889.65 33427.39 31090.77 28868.03 26754.82 25026.68 
 23298.54 21571.60 19964.68 18507.31 16990.22 15636.45 14406.70 13205.81 12150.33 11105.30 
 10176.54 9358.95  8620.22  7958.42  7337.05  6794.43  6281.38  5804.37  5345.37  4910.98  
 4527.53  4156.15  3806.90  3465.11  3153.52  2866.17  2602.37  2338.77  2093.41  1869.69  
 1659.43  1464.93  1291.27  1127.02  976.81   834.74   706.01   587.95   486.40   401.11   
 328.69   272.12   215.54   158.97   102.62   50.56    14.98    6.88     4.80     3.95     
 3.74     3.83     3.75     3.60     2.38     2.37     2.50     2.73     2.76     2.76     
 2.84     2.92     3.05     3.24     3.22     3.32     3.51     3.63     3.70     3.90     
 4.08     4.13     4.32     4.55     4.86     5.18     5.38     5.58     5.82     6.06     
 6.35     6.67     7.00     7.40     7.86     8.38     8.95     9.57     10.24    10.97    
 11.79    12.68    13.70    14.77    15.89    17.14    18.50    20.09    21.73    23.48    
 25.42    27.54    29.97    32.60    35.50    38.71    42.13    45.82    49.73    53.86    
 58.21    62.76    67.60    72.68    78.08    83.67    89.67    96.04    102.86   109.96   
 117.24   125.25   133.27   141.76   150.09   158.82   168.26   178.25   188.31   200.61   
 211.86   223.95   236.27   249.54   263.78   278.59   294.03   309.80   324.51   338.89   
 302.40   
391459.00 390673.77 389217.98 386150.23 380287.11 372307.76 363548.32 352982.04 340755.26 326086.74 
 308969.20 290342.27 270410.17 249370.40 227459.72 206130.12 185918.55 167537.21 150738.42 135793.50 
 122665.98 113492.55 104354.28 95216.02 88444.81 82601.27 77183.94 72319.72 67602.65 63262.19 
 59214.65 55584.32 52431.05 49258.57 46394.99 43710.15 41128.57 38688.77 36424.64 34253.34 
 32223.65 30265.69 28343.60 26464.85 24758.60 23112.56 21557.03 20084.46 18647.79 17383.72 
 16179.09 15053.66 14038.45 13200.22 12406.66 11676.07 10978.19 10280.59 9707.92  9159.68  
 8608.84  8104.23  7616.41  7184.23  6756.55  6339.21  5941.79  5559.23  5197.02  4854.42  
 4539.77  4246.77  3967.81  3685.81  3417.64  3171.81  2946.00  2728.70  2523.77  2332.84  
 2153.92  1982.64  1823.73  1678.02  1545.07  1418.20  1298.13  1194.36  1107.68  1021.16  
 944.19   866.33   794.66   728.59   669.10   612.77   561.30   511.53   464.48   425.51   
 388.15   354.70   324.57   297.62   272.45   247.13   223.75   201.52   180.57   161.39   
 144.14   128.88   113.92   98.96    84.93    71.23    59.97    50.70    43.24    28.25    
 10.39    5.93     5.48     5.54     5.85     6.25     6.69     7.17     7.70     8.70     
 9.88     10.86    11.89    13.11    14.79    16.79    18.00    18.06    18.49    19.57    
 20.96    22.64    24.64    27.55    29.52    31.57    32.96    35.44    39.78    43.69    
 47.31    51.15    54.43    56.88    61.42    66.22    71.30    76.79    82.51    88.54    
 94.77    101.39   108.35   115.69   123.39   131.56   140.23   150.20   161.21   170.64   
 181.48   193.79   206.31   219.23   234.83   250.46   266.65   283.82   300.41   317.21   
 302.40   
391459.00 391652.31 391407.20 390511.56 387587.42 382101.78 375312.91 367600.94 358089.74 346136.48 
 331964.39 315691.20 297313.28 276534.83 254909.98 233285.17 211676.51 191401.61 172651.55 156013.76 
 141536.16 129168.39 119115.41 110409.16 103033.27 96575.24 90593.78 85187.88 80124.92 75272.93 
 71016.90 66933.83 63252.85 59791.45 56703.26 53705.95 50780.82 48002.69 45405.35 42872.42 
 40485.25 38178.85 35895.34 33777.71 31777.70 29782.16 27839.02 26027.19 24395.41 22764.58 
 21214.03 19797.43 18437.27 17180.84 16005.17 14899.48 13947.33 13087.52 12281.78 11552.62 
 10888.41 10247.15 9633.83  9066.80  8553.77  8068.38  7586.04  7127.71  6686.62  6259.50  
 5838.93  5436.02  5050.24  4702.26  4364.13  4052.31  3749.41  3469.37  3208.55  2962.37  
 2746.98  2531.58  2316.66  2141.48  1986.03  1843.57  1709.95  1590.84  1486.71  1398.56  
 1318.07  1233.52  1152.85  1078.73  1009.09  946.65   889.46   832.67   786.75   743.91   
 705.54   672.03   641.67   613.72   587.69   564.76   543.51   523.64   505.69   490.22   
 475.03   458.31   442.33   427.39   413.64   399.76   385.32   371.13   356.31   341.27   
 326.61   311.43   296.11   279.38   262.60   244.86   227.11   209.37   192.41   173.35   
 151.77   117.43   87.81    58.28    38.27    36.22    31.25    21.37    11.67    11.65    
 12.78    14.04    15.46    17.13    18.95    21.02    23.27    25.83    29.22    33.00    
 36.73    40.56    44.90    54.13    71.53    55.15    57.58    62.19    67.18    72.52    
 78.17    84.05    90.20    96.75    103.64   111.04   118.97   128.66   137.28   147.32   
 158.35   170.29   182.74   195.60   210.35   225.71   242.22   259.00   276.55   294.08   
 302.40   
391459.00 392486.32 393362.40 394000.48 394084.18 392825.02 389229.42 383641.63 375828.72 365827.98 
 353048.40 337642.35 319887.34 299864.53 277653.53 254162.61 231906.88 210781.05 191635.49 173611.99 
 157647.82 144421.88 133822.05 124900.92 117886.96 111096.31 104307.32 98664.05 93328.72 88126.24 
 83188.74 78726.19 74460.97 70276.25 66541.38 62964.04 59427.37 55981.70 52860.75 49674.74 
 46684.79 43791.24 40953.70 38179.67 35626.79 33253.14 30900.70 28686.39 26713.69 24955.82 
 23302.69 21744.18 20300.73 18964.66 17708.34 16559.07 15501.36 14570.52 13707.75 12865.22 
 12042.57 11309.43 10576.96 9922.44  9293.43  8689.79  8121.51  7581.91  7050.93  6535.61  
 6072.77  5649.12  5244.87  4850.02  4485.59  4148.98  3820.62  3508.30  3222.88  2962.45  
 2722.61  2504.52  2290.20  2093.23  1921.39  1780.10  1648.30  1526.16  1418.08  1334.48  
 1262.68  1191.04  1119.39  1047.74  994.05   944.41   901.03   862.94   829.34   798.56   
 771.38   747.03   725.11   704.84   684.93   665.59   647.50   631.05   616.16   601.41   
 586.19   572.00   559.15   546.32   532.45   518.96   506.50   494.35   482.21   471.87   
 462.10   452.35   443.02   432.53   421.05   409.73   398.75   386.92   375.54   363.75   
 350.97   336.28   319.05   303.55   288.58   273.45   257.88   241.88   224.12   204.96   
 184.94   160.52   121.03   75.31    29.53    25.59    24.29    22.38    22.94    25.65    
 28.76    32.01    35.55    39.43    43.50    47.77    52.76    57.91    62.90    68.14    
 82.42    95.98    82.66    88.94    95.79    103.31   111.13   119.36   127.99   136.96   
 146.65   156.97   168.19   180.25   193.45   208.89   224.92   243.29   260.17   278.72   
 302.40   
391459.00 393177.04 395135.40 397413.86 400083.29 402457.29 403220.34 401177.89 395378.37 386529.85 
 374577.54 360305.34 343203.67 323593.68 301967.34 279912.65 258301.48 236690.28 215120.55 196805.93 
 180003.08 165401.60 153413.60 143839.04 135709.38 128115.38 120835.85 113833.39 107586.46 101612.89 
 95774.82 90094.32 84783.41 80096.29 75466.51 71032.51 66826.68 62586.35 58426.41 54403.50 
 50638.33 47328.85 44211.93 41506.20 38884.24 36351.66 34056.98 31880.75 29725.54 27684.51 
 25963.22 24241.93 22523.54 21030.37 19531.95 18186.36 16998.56 15943.92 14967.29 14033.06 
 13172.14 12328.79 11487.66 10726.90 9980.00  9296.90  8675.07  8099.47  7545.68  7013.36  
 6506.28  6039.36  5591.03  5160.83  4744.76  4372.48  4009.07  3672.68  3357.87  3078.10  
 2823.36  2568.61  2314.44  2108.46  1929.68  1774.70  1636.93  1505.98  1392.75  1305.86  
 1238.34  1171.10  1098.39  1032.10  978.00   933.06   895.44   862.41   832.59   805.14   
 782.16   762.78   746.05   730.38   714.65   700.08   685.77   671.85   658.42   645.84   
 633.88   622.05   610.44   599.69   588.55   577.46   566.57   554.30   542.29   530.37   
 518.27   506.83   495.70   484.60   473.59   462.50   451.24   440.75   430.18   419.88   
 410.00   399.58   389.14   378.34   367.25   355.76   344.39   331.35   316.00   301.11   
 285.04   268.05   245.72   223.38   201.13   186.74   175.36   160.26   109.10   48.92    
 42.96    39.47    35.77    35.81    39.94    44.39    49.34    54.56    60.32    66.29    
 72.64    78.56    85.02    97.96    123.60   101.52   108.95   117.03   126.09   135.16   
 144.39   154.23   164.67   175.52   187.59   201.15   216.96   234.15   252.13   271.34   
 302.40   
391459.00 393851.91 396685.84 400395.69 404905.65 408934.54 410952.58 409942.43 405815.03 398134.07 
 387093.50 373249.82 357202.45 338916.88 318630.63 296504.39 274384.87 252759.31 232563.62 213886.14 
 196688.07 181998.93 169511.17 158865.32 149622.25 141302.44 133545.10 126129.62 118577.77 112018.43 
 105468.78 99141.13 93191.53 87451.18 81871.01 76731.83 71798.33 67207.24 62979.11 58967.56 
 55373.40 52004.81 48761.00 45763.72 42915.11 40218.25 37471.20 34802.95 32472.15 30191.54 
 28028.20 25915.18 24032.07 22301.51 20730.65 19327.48 18080.20 16929.29 15886.14 14752.72 
 13757.30 12805.17 11997.07 11230.83 10464.98 9744.76  9098.39  8490.40  7922.89  7351.30  
 6799.75  6292.56  5787.88  5343.18  4938.76  4549.57  4178.98  3805.34  3471.81  3165.93  
 2890.39  2632.77  2390.16  2177.18  1999.51  1843.43  1697.20  1555.06  1435.03  1344.09  
 1272.28  1205.44  1129.30  1053.09  994.03   947.74   908.48   874.87   847.74   820.37   
 796.20   775.29   758.65   744.21   730.47   716.83   704.17   692.09   681.19   670.03   
 658.27   647.32   636.34   625.27   615.23   604.99   595.05   584.88   573.48   561.37   
 549.94   539.12   528.06   517.03   506.65   497.14   486.73   476.27   466.14   455.42   
 445.00   434.63   423.00   412.23   400.56   389.57   364.15   352.74   343.14   333.34   
 321.23   308.33   296.64   285.43   274.45   263.20   251.27   232.50   221.79   211.33   
 193.22   120.32   47.02    43.99    44.09    47.39    52.66    58.76    64.17    70.43    
 77.65    84.98    92.33    98.77    105.91   146.93   117.52   120.64   128.58   137.35   
 146.57   156.48   166.91   177.44   188.87   202.48   217.76   236.27   254.80   273.15   
 302.40   
391459.00 394346.35 397601.48 401857.52 407058.65 411835.73 414282.13 413804.15 410374.81 403529.50 
 393089.52 380004.09 364121.08 346002.33 326284.65 305256.11 283827.98 262102.18 241874.03 221681.09 
 204944.53 189934.48 177153.83 166234.05 156783.01 148084.69 139819.82 132086.60 124825.91 117731.27 
 110647.93 103954.53 97758.18 91754.65 86003.95 80218.28 75184.78 70535.14 66237.10 62236.45 
 58309.68 54602.75 51323.67 48254.58 45193.45 42138.30 39267.58 36607.94 34067.57 31580.63 
 29260.91 27040.02 25133.40 23228.67 21509.12 19987.28 18672.02 17456.91 16299.41 15199.12 
 14156.64 13220.96 12332.50 11503.74 10739.34 10033.09 9366.12  8731.24  8131.58  7558.77  
 6984.54  6461.29  5976.24  5534.32  5112.12  4696.75  4291.82  3918.60  3582.14  3267.51  
 2967.32  2702.39  2438.01  2219.04  2030.69  1865.07  1712.44  1567.43  1443.04  1350.75  
 1278.47  1214.18  1134.83  1063.40  997.27   945.47   903.64   869.62   839.47   812.55   
 788.44   767.96   751.60   737.30   724.95   713.64   702.20   691.59   680.99   671.01   
 660.97   651.09   640.83   630.79   620.70   610.96   601.31   591.53   581.88   572.16   
 561.29   551.33   541.76   531.94   521.98   512.32   501.89   491.89   481.93   472.01   
 461.88   451.37   440.19   428.53   417.08   405.55   393.87   369.05   358.32   348.45   
 338.80   329.00   318.26   307.20   296.41   285.71   274.75   263.88   253.59   241.12   
 228.45   196.87   57.26    50.11    49.42    51.02    56.22    62.72    69.65    76.58    
 83.97    91.43    99.38    107.63   115.29   143.75   156.15   129.02   136.76   145.33   
 154.46   164.35   175.27   186.41   198.09   211.40   226.87   243.75   262.19   282.22   
 302.40   
391459.00 394542.95 398222.08 402740.44 407702.48 411742.54 413764.49 413267.94 409930.71 403233.89 
 393053.55 379666.49 363472.34 345467.49 325461.66 303929.98 281573.35 259665.30 238832.58 219795.35 
 202481.07 187563.81 174851.23 163666.50 153805.20 145027.26 137092.34 129462.85 121894.12 115049.13 
 108211.18 101373.23 95217.10 89055.20 83218.53 77892.60 72634.38 67805.49 63436.63 59463.39 
 55898.27 52491.68 49197.57 46209.84 43439.05 40614.60 37829.36 35223.08 32856.44 30598.90 
 28376.03 26234.53 24248.40 22501.60 20868.06 19425.90 18120.31 16954.77 15869.77 14789.39 
 13804.34 12862.31 12028.96 11262.23 10496.14 9799.44  9148.40  8554.46  7960.62  7393.32  
 6859.25  6341.13  5840.60  5382.22  4971.26  4582.06  4214.76  3850.07  3512.35  3200.60  
 2918.85  2651.02  2410.27  2191.66  2006.76  1847.10  1695.32  1554.87  1431.00  1336.23  
 1259.41  1213.73  1132.69  1051.36  991.20   940.87   900.77   867.47   838.52   812.29   
 788.03   766.61   749.41   734.89   721.65   709.28   697.17   685.90   675.06   664.23   
 654.05   643.44   633.22   622.74   612.26   602.99   593.77   584.71   573.38   561.16   
 549.80   538.10   526.53   515.17   503.94   492.68   481.37   469.49   458.51   447.50   
 436.80   425.45   413.54   399.93   385.87   368.38   351.69   345.71   337.56   328.36   
 317.39   305.44   294.21   281.73   269.76   257.62   240.50   223.68   210.72   196.84   
 148.80   98.77    48.72    46.52    46.96    52.24    59.10    66.35    73.82    81.90    
 90.29    99.18    108.54   117.53   133.86   159.97   135.36   143.34   150.63   158.33   
 166.46   175.71   186.33   197.47   209.20   222.68   239.72   256.79   274.86   294.29   
 302.40   
391459.00 394588.34 397643.86 401179.17 405025.05 408296.22 409960.74 409929.22 407417.55 401922.01 
 392819.79 380666.86 365462.27 347131.77 326121.62 303282.17 280060.22 257982.92 235905.62 213868.70 
 195799.50 179703.08 165890.84 154162.61 144355.21 135720.80 127725.16 120446.94 113512.25 106807.07 
 100399.32 94276.61 88614.85 83379.54 78320.45 73414.01 68682.32 64316.25 60030.92 55872.65 
 52060.55 48688.48 45636.64 42957.58 40252.39 37699.09 35250.89 32977.75 30757.41 28646.19 
 26711.56 24959.38 23208.71 21577.59 20091.06 18735.90 17551.29 16441.81 15400.01 14441.47 
 13590.35 12751.93 11934.04 11120.42 10390.08 9682.19  9040.39  8446.56  7862.62  7337.20  
 6831.21  6336.85  5874.93  5437.93  5002.93  4598.63  4224.04  3872.32  3551.72  3245.50  
 2966.09  2711.72  2457.69  2232.22  2030.30  1859.19  1710.94  1577.42  1454.78  1348.53  
 1263.98  1200.47  1136.58  1066.49  1002.26  950.32   906.98   870.10   837.88   809.03   
 783.25   762.01   743.55   726.23   709.97   695.05   680.83   667.01   653.88   641.31   
 628.67   616.20   604.21   593.14   582.25   571.38   559.95   547.84   536.67   524.76   
 512.72   500.63   488.11   475.65   463.92   452.28   441.26   430.26   418.80   407.51   
 396.62   385.87   374.80   363.77   352.70   341.36   329.86   315.62   299.96   285.33   
 269.36   254.14   236.56   218.97   200.94   187.38   169.67   138.53   50.45    40.14    
 39.54    38.41    40.64    46.09    52.08    58.45    65.17    72.23    80.00    88.38    
 97.36    106.17   126.17   145.74   130.53   137.44   145.50   154.91   163.66   172.72   
 181.79   191.25   201.33   212.46   224.86   238.67   253.87   270.25   287.90   306.79   
 302.40   
391459.00 394110.28 396321.63 398210.74 400057.57 401779.82 402392.83 401364.82 398173.67 392018.73 
 381778.51 368278.72 352083.95 333437.96 311944.50 288795.43 264902.11 241852.58 220123.42 199679.53 
 180878.43 164519.23 150609.27 138869.88 128980.13 120817.87 113943.36 107078.64 100779.53 94887.30 
 89360.54 84365.82 79455.49 74927.60 70701.35 66839.65 63032.69 59277.87 55779.84 52488.65 
 49453.75 46421.34 43424.69 40595.34 38025.94 35462.80 33038.92 30759.45 28715.95 26789.74 
 25040.39 23426.59 21869.74 20472.38 19179.85 17939.96 16807.89 15772.22 14828.87 13934.01 
 13095.26 12298.92 11588.62 10879.17 10169.73 9511.33  8911.44  8345.53  7795.23  7257.15  
 6748.23  6266.97  5825.08  5393.14  4991.90  4621.58  4275.72  3927.26  3605.39  3310.35  
 3046.60  2803.68  2567.78  2348.68  2156.07  1978.23  1821.88  1686.69  1563.37  1450.24  
 1354.94  1275.52  1196.63  1130.57  1064.62  1005.55  953.77   909.01   869.64   832.63   
 800.45   771.62   746.15   723.36   701.47   681.06   661.01   642.61   625.18   608.36   
 592.29   576.57   561.24   546.74   532.38   518.28   504.84   490.57   476.47   463.28   
 449.84   437.10   424.62   412.62   400.67   389.24   377.33   364.08   351.54   340.36   
 330.41   316.70   301.09   285.59   269.10   252.94   237.96   222.81   206.01   187.33   
 163.75   137.12   91.27    45.24    33.97    27.55    26.62    28.90    32.57    36.66    
 41.18    45.99    51.28    57.04    63.18    69.99    77.49    85.21    93.38    113.80   
 116.69   114.85   122.86   131.28   139.51   147.89   156.55   165.45   174.39   183.70   
 193.47   205.17   217.06   226.59   240.62   254.69   269.35   285.31   301.47   319.27   
 302.40   
391459.00 393659.51 394817.21 395213.78 395127.57 394554.61 393170.49 390435.45 384551.34 375960.74 
 365161.66 352539.40 336942.99 318653.30 297883.72 275875.82 253375.28 230874.74 208402.68 188176.02 
 169831.12 152965.18 138651.72 126848.84 117012.49 108837.23 101695.54 95278.49 89342.31 84076.88 
 79117.62 74456.16 70267.17 66002.02 62412.31 59141.35 55936.23 52926.73 49998.80 47246.72 
 44588.86 42160.62 39810.86 37608.50 35428.19 33446.20 31422.02 29533.37 27682.42 25995.61 
 24308.80 22624.47 21137.42 19696.60 18381.97 17167.34 16029.61 14993.39 14025.56 13154.06 
 12391.67 11694.50 11029.64 10374.18 9761.89  9195.30  8646.72  8123.86  7628.95  7148.16  
 6704.13  6268.36  5850.08  5446.86  5056.90  4697.06  4354.93  4026.34  3719.04  3442.53  
 3180.24  2927.93  2702.06  2476.63  2286.68  2110.76  1955.34  1810.42  1679.88  1563.11  
 1459.67  1368.26  1289.70  1204.21  1123.29  1050.77  984.78   921.46   864.06   806.09   
 758.94   716.30   677.82   642.28   609.93   580.45   554.38   530.44   507.87   486.84   
 467.73   450.03   434.17   416.38   400.33   384.97   368.73   351.63   335.84   320.27   
 304.25   287.84   271.00   254.99   238.99   222.98   207.28   191.80   175.00   156.76   
 135.39   109.66   80.28    56.08    38.58    32.48    21.90    15.24    16.32    17.88    
 19.65    21.63    23.84    26.30    29.05    32.14    35.52    39.77    44.61    49.73    
 55.38    63.17    79.97    72.89    76.20    81.71    88.14    95.22    102.86   110.70   
 118.80   127.63   136.46   145.37   154.36   163.60   172.99   182.77   192.65   203.32   
 215.33   226.21   236.89   248.96   262.27   276.48   290.84   305.58   321.20   337.19   
 302.40   
391459.00 392791.72 392961.99 392084.95 390800.44 388401.04 383875.34 376180.43 366820.89 356449.23 
 343875.04 329326.67 312487.11 294111.85 273688.35 252130.70 230105.38 208933.11 188964.80 169964.69 
 152050.07 136617.85 123601.06 113377.62 103177.57 95646.05 89113.23 83421.54 78070.91 73002.32 
 68255.08 63925.16 59878.01 56223.96 52880.29 49790.46 47017.80 44287.55 41807.80 39362.99 
 37153.42 35041.73 32986.72 31123.49 29381.55 27525.06 25739.35 24057.93 22469.11 20952.83 
 19548.68 18209.22 17001.80 15919.12 14857.52 13891.75 13038.43 12261.84 11549.24 10837.15 
 10125.07 9510.99  8964.57  8441.42  7908.40  7424.55  6979.54  6530.42  6102.28  5693.32  
 5316.86  4967.36  4631.92  4311.41  4011.64  3730.23  3459.91  3193.72  2948.17  2723.01  
 2516.22  2324.54  2141.06  1962.18  1801.82  1656.97  1520.36  1389.07  1267.92  1170.85  
 1073.99  977.12   908.05   838.55   768.52   702.32   641.88   584.89   534.15   486.29   
 433.81   394.42   357.19   324.20   293.64   264.97   239.22   215.29   195.28   176.97   
 159.71   142.90   127.18   111.79   96.40    82.65    70.25    59.61    41.32    16.45    
 8.68     8.19     8.48     8.91     9.40     9.93     10.64    11.49    12.71    14.29    
 15.84    17.38    19.10    21.04    23.36    24.94    25.66    26.92    28.46    30.30    
 32.40    34.59    36.74    39.28    42.78    47.75    51.42    54.81    59.72    64.39    
 68.56    73.11    77.96    82.70    89.31    96.17    103.51   111.20   119.25   127.59   
 136.31   145.38   154.66   164.23   173.97   184.13   194.42   205.25   215.97   227.22   
 239.44   251.68   264.40   278.53   291.53   304.82   319.03   334.38   348.95   364.09   
 302.40   
391459.00 392255.38 391913.76 390664.92 388433.62 383830.19 375656.70 364952.55 353129.71 339816.98 
 324659.83 307692.97 290044.56 270327.19 249108.85 227524.46 205917.33 185260.91 165587.56 146858.66 
 130550.29 115903.16 105009.41 94158.54 86232.44 79831.30 74150.00 68693.17 63654.42 59164.27 
 54937.11 50794.64 47103.64 43752.02 40796.68 37974.02 35475.43 33026.98 30806.74 28769.05 
 26714.26 24989.15 23345.76 21819.81 20345.73 18918.87 17445.89 16089.02 14795.62 13596.21 
 12494.13 11552.97 10613.84 9674.71  8873.61  8162.74  7518.68  6922.64  6371.26  5846.77  
 5354.88  4914.22  4505.13  4147.19  3793.82  3457.03  3157.44  2876.80  2607.01  2351.52  
 2118.65  1893.91  1680.87  1474.05  1291.71  1136.84  982.30   827.76   694.61   580.50   
 481.14   395.44   316.33   252.28   195.62   137.36   80.79    24.24    10.09    8.96     
 8.40     7.91     7.56     7.73     7.85     7.88     7.21     7.21     7.49     7.91     
 8.35     8.61     8.98     9.38     9.81     10.29    10.71    11.19    11.74    12.26    
 12.80    13.49    14.15    14.85    15.66    16.55    17.51    18.48    19.53    20.75    
 22.04    23.37    24.77    26.28    27.96    29.73    31.63    33.75    36.00    38.43    
 40.97    43.73    46.63    49.86    53.40    57.10    61.09    65.42    70.17    75.41    
 81.13    87.69    94.95    103.06   111.98   121.71   132.24   144.00   156.48   169.51   
 183.39   197.70   212.38   228.01   243.66   259.30   274.07   288.99   303.78   317.86   
 331.50   344.46   356.78   368.46   378.73   388.17   396.50   403.55   409.14   413.15   
 416.46   417.43   416.72   414.30   409.69   402.99   395.49   386.84   377.16   366.03   
 302.40   
391459.00 391693.97 391689.83 391207.45 389766.10 386173.82 378557.85 367488.94 355267.66 341346.18 
 324727.72 304040.38 279283.85 255033.50 230783.12 206555.36 184761.33 161793.07 141100.78 122934.67 
 108392.57 94811.51 82439.16 72357.00 65585.96 59790.79 54628.88 49424.26 43851.20 39798.50 
 36143.87 32663.32 29180.73 26436.23 23940.16 21444.10 18956.50 17175.11 15482.67 13892.12 
 12553.90 11248.77 10029.52 9033.60  8163.08  7288.47  6352.17  5439.18  4515.92  3687.46  
 3076.46  2465.47  1856.94  1494.11  1215.46  1006.20  820.74   671.99   545.08   444.78   
 364.75   298.29   250.26   202.36   166.58   139.22   114.88   96.17    82.22    71.42    
 61.98    53.80    48.12    42.90    38.33    34.79    31.36    27.62    23.68    20.25    
 17.81    15.62    13.63    11.68    9.64     7.94     6.88     6.53     6.44     6.44     
 6.51     6.66     6.88     7.14     7.43     7.75     8.10     8.48     8.90     9.33     
 9.77     10.24    10.73    11.24    11.81    12.36    12.97    13.63    14.36    15.14    
 15.97    16.90    17.90    18.97    20.08    21.30    22.58    23.95    25.42    26.97    
 28.64    30.49    32.49    34.52    36.62    38.95    41.57    44.20    47.05    50.09    
 53.32    56.74    60.37    64.25    68.28    72.49    77.10    81.85    87.04    92.81    
 99.86    107.19   114.26   123.19   132.14   142.57   153.69   165.89   178.64   192.34   
 206.60   221.29   235.81   251.10   266.30   281.42   296.40   310.58   325.08   338.56   
 351.47   363.57   374.76   385.25   394.51   402.91   409.53   414.82   418.60   420.78   
 421.37   420.06   417.08   412.75   406.44   398.03   387.98   376.94   364.82   351.44   
 302.40   
391459.00 391535.23 392516.32 392526.68 391271.44 388206.53 371455.64 346740.98 326432.76 302928.44 
 276799.65 255147.19 226333.99 201909.77 182985.40 155881.78 133735.31 114319.75 98165.00 82050.52 
 65477.31 55561.21 49153.32 44120.34 39752.67 35928.97 32534.33 29297.97 26320.34 23608.06 
 20703.45 16735.90 14207.81 11925.97 9646.78  7367.58  6133.73  4538.09  3344.72  2434.15  
 1487.12  1171.17  863.03   554.89   425.60   337.27   273.16   223.17   187.28   155.68   
 132.02   113.42   94.88    82.15    74.04    66.15    60.12    54.08    49.57    45.97    
 42.91    40.70    38.64    36.85    35.18    33.62    32.20    30.68    28.81    26.77    
 24.49    22.34    20.55    18.92    17.62    16.58    15.52    14.37    13.38    12.39    
 11.42    10.51    9.68     9.03     8.50     8.08     7.87     7.82     7.82     7.89     
 8.00     8.16     8.35     8.63     8.95     9.29     9.69     10.11    10.56    11.05    
 11.54    12.11    12.69    13.34    14.00    14.73    15.48    16.30    17.16    18.09    
 19.04    20.08    21.21    22.40    23.65    25.01    26.46    27.94    29.59    31.35    
 33.20    35.12    37.23    39.48    41.83    44.26    46.97    49.85    52.82    56.03    
 59.40    62.93    66.70    70.75    75.11    79.79    84.79    90.35    96.41    102.98   
 110.21   118.09   126.82   136.34   146.78   157.99   170.00   182.80   196.14   210.15   
 224.44   239.80   255.18   269.97   285.26   299.92   314.15   327.73   340.96   353.80   
 366.00   376.95   386.88   396.01   403.59   410.00   415.29   419.07   421.12   421.44   
 419.73   416.38   410.96   404.33   395.45   384.50   372.84   359.93   345.63   329.92   
 302.40   
391459.00 391233.58 392538.85 393027.93 390250.54 366784.21 346859.34 322574.02 299264.32 266443.71 
 241919.28 217391.53 192433.00 163616.98 140576.78 112111.88 97938.55 85860.77 75169.22 65773.90 
 57437.21 50606.33 45168.12 35082.75 29142.13 23201.52 17291.54 14699.28 9972.99  7566.12  
 5394.05  3221.99  1064.32  736.25   526.95   379.91   305.94   231.97   158.40   128.66   
 105.54   88.43    74.26    65.37    58.71    53.70    49.67    46.62    43.63    41.24    
 39.03    37.22    35.66    34.19    32.72    31.12    30.09    29.58    29.27    28.83    
 28.15    27.13    26.09    25.03    23.52    22.01    20.50    19.04    17.90    16.82    
 15.97    15.17    14.31    13.49    12.87    12.26    11.64    11.00    10.45    9.95     
 9.48     9.03     8.67     8.38     8.16     7.99     7.96     7.98     8.03     8.13     
 8.28     8.47     8.67     8.95     9.26     9.59     9.98     10.40    10.88    11.38    
 11.88    12.44    13.04    13.68    14.40    15.16    15.94    16.78    17.71    18.70    
 19.71    20.79    21.96    23.21    24.53    25.98    27.55    29.16    30.87    32.79    
 34.81    37.03    39.42    41.88    44.42    47.20    50.18    53.36    56.71    60.25    
 63.97    67.97    72.24    76.79    81.58    86.75    92.38    98.46    104.92   111.96   
 120.43   128.90   138.02   147.97   158.56   170.19   182.38   195.31   208.76   222.86   
 237.65   252.48   267.23   282.79   297.89   313.02   327.80   341.68   355.29   367.94   
 379.51   390.13   399.44   407.66   414.15   419.20   422.70   424.34   424.46   423.53   
 420.78   415.87   409.56   401.17   390.66   378.68   365.05   350.29   334.37   317.26   
 302.40   
391459.00 391085.10 392422.98 392752.99 371198.82 348650.02 321620.32 294494.53 269260.05 239081.45 
 211524.99 182106.62 152982.23 131871.91 119650.93 107751.34 95854.12 84392.32 73861.27 55839.88 
 44312.67 34909.22 24178.02 18323.19 13347.37 7598.28  1840.79  1348.71  910.53   472.34   
 322.57   244.91   185.32   149.76   129.34   109.08   88.83    75.65    67.41    62.26    
 56.70    50.74    45.59    41.04    38.06    36.84    33.72    31.63    30.24    29.07    
 27.85    26.68    25.74    25.17    24.65    24.28    23.87    23.48    22.78    21.87    
 20.77    19.72    18.58    17.61    16.40    15.52    14.79    14.14    13.53    12.98    
 12.48    12.07    11.65    11.23    10.79    10.37    9.97     9.60     9.29     8.99     
 8.74     8.55     8.40     8.30     8.24     8.23     8.23     8.29     8.40     8.55     
 8.74     8.95     9.17     9.42     9.70     10.05    10.45    10.87    11.31    11.80    
 12.29    12.86    13.47    14.14    14.86    15.63    16.45    17.34    18.28    19.26    
 20.33    21.54    22.80    24.18    25.65    27.23    28.92    30.72    32.65    34.70    
 36.89    39.25    41.77    44.52    47.35    50.33    53.63    57.15    60.85    64.78    
 68.87    73.16    77.78    82.85    88.21    93.92    100.08   106.79   114.06   121.91   
 130.35   139.55   149.63   160.34   171.71   183.82   196.50   210.13   224.29   239.64   
 254.99   269.62   284.37   298.95   313.52   327.75   341.55   355.00   368.10   380.55   
 392.17   402.58   411.49   418.82   424.33   428.17   430.20   430.44   428.98   425.95   
 421.74   416.06   408.68   399.16   388.85   375.49   361.32   345.54   328.72   310.51   
 302.40   
391459.00 389685.35 390795.96 390733.52 366112.98 341210.76 315723.72 279122.40 251062.40 222971.38 
 190894.05 161119.57 139736.25 129340.20 118352.07 107119.53 95958.21 81004.29 62125.49 45871.22 
 31048.71 23642.07 16252.77 10983.80 5714.83  491.02   325.94   234.07   142.46   77.43    
 55.22    42.81    36.30    32.40    29.49    27.31    25.67    24.62    23.63    22.64    
 21.70    21.09    20.31    19.61    19.18    18.80    18.47    18.38    18.34    18.31    
 18.43    18.41    18.38    18.34    18.13    17.70    17.17    16.33    15.49    14.79    
 14.13    13.55    12.97    12.76    12.68    12.67    12.64    12.64    12.52    12.44    
 12.21    12.10    11.91    11.78    11.56    11.34    11.00    10.62    10.25    9.91     
 9.66     9.47     9.32     9.24     9.15     9.10     9.11     9.13     9.18     9.28     
 9.39     9.55     9.70     9.90     10.15    10.43    10.77    11.13    11.52    11.99    
 12.49    13.02    13.60    14.22    14.90    15.60    16.36    17.18    18.12    19.10    
 20.15    21.28    22.51    23.89    25.37    26.91    28.60    30.37    32.28    34.32    
 36.55    39.02    41.68    44.40    47.30    50.39    53.83    57.46    61.25    65.31    
 69.65    74.28    79.22    84.48    90.07    96.04    102.74   109.87   117.24   126.40   
 135.57   145.29   155.72   166.98   179.02   191.92   205.14   219.35   233.87   248.82   
 264.30   279.68   294.50   310.01   324.75   339.43   353.59   366.58   379.60   391.71   
 402.77   413.09   422.50   430.80   436.76   441.26   443.64   443.63   441.60   437.63   
 432.13   425.84   418.24   408.59   397.59   384.93   369.65   352.64   333.60   314.53   
 302.40   
391459.00 388773.80 389180.72 388828.74 364727.13 339220.05 313315.61 276133.38 252737.63 220211.56 
 187257.97 155528.07 137594.00 126904.56 115562.77 104213.18 92863.59 71297.38 54667.78 41137.47 
 28842.40 17827.34 10051.35 7515.30  5037.70  2560.09  82.48    41.07    34.87    30.81    
 27.17    25.28    23.31    20.86    18.43    16.54    14.87    13.34    12.38    11.67    
 11.42    11.24    11.25    10.77    10.37    10.32    10.76    11.31    11.88    12.62    
 13.25    13.68    14.05    14.55    15.05    15.14    15.01    14.70    14.34    13.92    
 13.39    12.78    12.26    11.75    11.21    10.74    10.44    10.21    9.93     9.71     
 9.56     9.39     9.25     9.09     8.97     8.86     8.66     8.55     8.45     8.31     
 8.35     8.38     8.42     8.46     8.49     8.53     8.73     8.89     9.08     9.35     
 9.62     9.89     10.15    10.43    10.77    11.12    11.50    11.93    12.39    12.87    
 13.36    13.88    14.47    15.10    15.77    16.50    17.25    18.04    18.91    19.87    
 20.89    22.04    23.31    24.65    26.10    27.67    29.39    31.21    33.18    35.32    
 37.61    40.01    42.66    45.52    48.50    51.67    55.19    59.00    63.03    67.33    
 71.82    76.64    81.84    87.48    93.44    99.73    106.41   113.87   121.89   130.48   
 139.70   149.70   160.60   172.17   184.38   197.38   211.13   225.16   240.91   256.67   
 272.52   288.50   303.67   318.44   333.28   347.79   361.60   374.58   387.08   398.96   
 409.63   419.29   428.27   436.10   442.50   446.76   449.23   449.34   447.19   442.80   
 435.93   428.51   420.13   410.69   399.92   388.10   374.92   359.45   342.43   323.76   
 302.40   
