IESNA:LM-63-2002
[TEST] 1
[TESTLAB] AOK
[TESTDATE] 2022-05-19
[ISSUEDATE] 2022-05-19 19:02:12
[NEARFIELD] 
[LAMPPOSITION] 0,0
[OTHER] EVERFINE GO-2000A_V1 SYSTEM
[MANUFAC] AOK
[LUMCAT] A
[LUMINAIRE] AOK-800WiSF-NV-S5-00-5070-30D-P
[LAMPCAT] B
[LAMP] 5050
[BALLAST] E
[BALLASTCAT] F
[OTHER] 
[OTHER] Gamma(deg)    Fz(lm)      Ft(lm)     %Lum    %Lamp
[OTHER]   0- 10     22764.05    22764.05    20.02    20.02
[OTHER]  10- 20     36940.02    59704.07    52.51    52.51
[OTHER]  20- 30     21900.82    81604.89    71.77    71.77
[OTHER]  30- 40     13851.53    95456.43    83.95    83.95
[OTHER]  40- 50      8400.90   103857.33    91.33    91.33
[OTHER]  50- 60      4628.88   108486.21    95.41    95.41
[OTHER]  60- 70      2561.23   111047.44    97.66    97.66
[OTHER]  70- 80      1259.83   112307.26    98.77    98.77
[OTHER]  80- 90       526.86   112834.12    99.23    99.23
[OTHER]  90-100       251.16   113085.29    99.45    99.45
[OTHER] 100-110       160.46   113245.74    99.59    99.59
[OTHER] 110-120       120.28   113366.02    99.70    99.70
[OTHER] 120-130        91.14   113457.16    99.78    99.78
[OTHER] 130-140        67.69   113524.85    99.84    99.84
[OTHER] 140-150        55.77   113580.61    99.89    99.89
[OTHER] 150-160        56.99   113637.60    99.94    99.94
[OTHER] 160-170        52.39   113689.99    99.98    99.98
[OTHER] 170-180        20.55   113710.55   100.00   100.00
[OTHER] 
TILT=NONE
1 1.1371e+005 1 181 25 1 2 0.150 0.200 0.000
1.000 1 800.513
0.0    1.0    2.0    3.0    4.0    5.0    6.0    7.0    8.0    9.0    
 10.0   11.0   12.0   13.0   14.0   15.0   16.0   17.0   18.0   19.0   
 20.0   21.0   22.0   23.0   24.0   25.0   26.0   27.0   28.0   29.0   
 30.0   31.0   32.0   33.0   34.0   35.0   36.0   37.0   38.0   39.0   
 40.0   41.0   42.0   43.0   44.0   45.0   46.0   47.0   48.0   49.0   
 50.0   51.0   52.0   53.0   54.0   55.0   56.0   57.0   58.0   59.0   
 60.0   61.0   62.0   63.0   64.0   65.0   66.0   67.0   68.0   69.0   
 70.0   71.0   72.0   73.0   74.0   75.0   76.0   77.0   78.0   79.0   
 80.0   81.0   82.0   83.0   84.0   85.0   86.0   87.0   88.0   89.0   
 90.0   91.0   92.0   93.0   94.0   95.0   96.0   97.0   98.0   99.0   
 100.0  101.0  102.0  103.0  104.0  105.0  106.0  107.0  108.0  109.0  
 110.0  111.0  112.0  113.0  114.0  115.0  116.0  117.0  118.0  119.0  
 120.0  121.0  122.0  123.0  124.0  125.0  126.0  127.0  128.0  129.0  
 130.0  131.0  132.0  133.0  134.0  135.0  136.0  137.0  138.0  139.0  
 140.0  141.0  142.0  143.0  144.0  145.0  146.0  147.0  148.0  149.0  
 150.0  151.0  152.0  153.0  154.0  155.0  156.0  157.0  158.0  159.0  
 160.0  161.0  162.0  163.0  164.0  165.0  166.0  167.0  168.0  169.0  
 170.0  171.0  172.0  173.0  174.0  175.0  176.0  177.0  178.0  179.0  
 180.0  
0.0    15.0   30.0   45.0   60.0   75.0   90.0   105.0  120.0  135.0  
 150.0  165.0  180.0  195.0  210.0  225.0  240.0  255.0  270.0  285.0  
 300.0  315.0  330.0  345.0  360.0  
261168.52 257556.36 254465.23 254115.65 253755.42 234920.35 219329.10 205087.46 184250.51 170263.04 
 151605.05 133684.00 119923.40 106209.20 92494.99 85866.33 78815.40 71313.28 51664.24 39842.44 
 28177.59 21895.97 13401.25 7168.16  960.77   133.51   83.40    40.83    29.59    24.57    
 21.54    18.32    16.96    15.85    14.35    12.68    11.46    10.37    9.55     8.97     
 8.49     8.22     7.97     7.57     7.19     6.83     6.52     6.14     5.87     5.77     
 5.70     5.54     5.35     5.23     5.15     5.00     4.89     4.75     4.65     4.59     
 4.57     4.53     4.49     4.47     4.47     4.47     4.47     4.46     4.45     4.44     
 4.43     4.42     4.42     4.41     4.35     4.30     4.24     4.18     4.14     4.12     
 4.09     4.08     4.08     4.08     4.08     4.09     4.13     4.21     4.32     4.44     
 4.58     4.70     4.87     5.04     5.22     5.41     5.63     5.89     6.17     6.47     
 6.80     7.17     7.55     7.94     8.37     8.84     9.33     9.82     10.33    10.91    
 11.56    12.27    13.03    13.83    14.73    15.68    16.67    17.71    18.90    20.17    
 21.51    22.91    24.40    26.07    27.85    29.73    31.74    34.01    36.44    39.03    
 41.78    44.69    47.76    51.00    54.63    58.50    62.65    67.00    71.68    76.64    
 82.05    88.06    94.73    101.91   109.55   117.64   125.97   135.15   144.99   155.12   
 165.30   175.58   185.81   196.41   206.82   216.95   226.62   236.53   246.45   254.64   
 262.42   269.77   276.75   283.09   288.70   292.87   295.76   297.40   297.72   296.60   
 293.73   289.90   285.57   280.44   274.94   267.83   259.59   250.51   240.42   228.90   
 215.82   
261168.52 257425.48 253970.10 251792.23 250995.63 237380.42 223770.54 210680.10 195269.00 177061.42 
 159869.48 143204.38 126643.72 101134.46 91614.13 84245.67 76592.38 69270.64 61885.63 45441.11 
 34586.71 26736.36 18894.42 12100.20 7712.37  4162.10  642.18   430.00   311.63   193.85   
 135.59   91.05    98.20    99.65    56.70    34.29    25.59    21.19    18.81    17.17    
 15.96    15.10    14.13    13.14    12.17    11.38    10.73    9.95     8.96     8.28     
 7.71     7.36     7.13     6.86     6.61     6.28     5.98     5.74     5.57     5.41     
 5.36     5.33     5.27     5.16     5.02     4.89     4.75     4.62     4.49     4.38     
 4.29     4.19     4.11     4.06     3.98     3.91     3.83     3.76     3.70     3.64     
 3.61     3.61     3.61     3.62     3.65     3.71     3.79     3.88     3.98     4.11     
 4.24     4.38     4.52     4.70     4.89     5.11     5.34     5.58     5.86     6.18     
 6.51     6.86     7.22     7.61     8.03     8.49     8.98     9.48     10.02    10.59    
 11.19    11.85    12.59    13.38    14.19    15.13    16.13    17.20    18.27    19.45    
 20.73    22.16    23.71    25.33    27.03    28.94    30.95    33.15    35.47    37.96    
 40.58    43.41    46.44    49.65    53.05    56.75    60.72    65.04    69.48    74.39    
 79.89    85.81    92.13    99.06    106.54   114.62   123.82   133.02   142.55   152.71   
 162.93   173.58   184.01   194.57   205.14   215.44   225.56   235.11   244.19   252.75   
 260.83   268.34   275.51   282.49   287.87   292.50   295.79   297.30   297.64   296.63   
 294.27   291.27   287.48   282.78   277.29   270.72   263.06   254.39   244.47   233.68   
 215.82   
261168.52 257390.65 253968.42 250314.06 248781.61 246137.21 236251.86 213279.50 198863.84 184593.56 
 164273.06 151663.35 131437.79 115608.58 97073.79 78509.61 70488.23 63246.83 55637.40 48925.77 
 42492.06 31644.98 25085.21 19879.29 14318.71 11434.15 8311.35  5185.76  1378.13  905.00   
 473.82   291.00   202.15   166.26   134.14   107.87   81.66    70.14    56.08    45.66    
 40.18    34.64    30.71    27.29    24.84    23.24    21.37    19.97    18.38    16.92    
 14.54    12.91    12.17    11.22    10.06    9.05     8.75     8.75     8.68     8.39     
 7.99     7.57     7.20     6.88     6.64     6.42     6.21     6.02     5.83     5.65     
 5.46     5.24     5.06     4.85     4.67     4.47     4.28     4.10     3.93     3.79     
 3.67     3.57     3.51     3.51     3.54     3.62     3.71     3.84     3.97     4.10     
 4.24     4.41     4.59     4.79     5.02     5.24     5.48     5.76     6.05     6.36     
 6.69     7.05     7.43     7.82     8.24     8.72     9.20     9.69     10.22    10.81    
 11.45    12.16    12.90    13.67    14.52    15.47    16.43    17.47    18.63    19.91    
 21.27    22.69    24.19    25.86    27.61    29.46    31.42    33.58    35.85    38.28    
 40.79    43.48    46.41    49.56    52.93    56.48    60.32    64.55    69.09    73.99    
 79.25    84.96    91.31    98.23    105.65   113.73   122.16   131.10   140.48   150.47   
 160.82   171.18   181.54   192.14   202.87   213.30   223.18   233.66   244.15   252.76   
 261.34   269.41   277.28   283.76   289.23   293.62   296.85   298.68   299.90   299.10   
 297.21   294.53   291.54   287.66   282.34   275.56   267.64   258.85   249.40   238.32   
 215.82   
261168.52 257727.92 254480.62 250906.81 245917.22 240484.05 235050.87 229535.95 215819.75 193386.63 
 179151.28 163181.86 145743.48 128510.79 114144.85 96080.42 82758.70 70902.87 55596.08 46064.65 
 40060.15 35251.07 31276.28 28112.04 25268.65 22404.43 17226.02 14027.36 11487.17 8563.07  
 7071.29  5035.92  3625.97  2216.01  815.37   528.37   363.28   276.93   191.02   152.04   
 123.21   100.27   83.45    70.58    60.41    52.02    45.03    39.83    35.88    32.04    
 29.07    26.90    25.15    23.18    20.25    16.95    13.28    12.55    12.03    11.63    
 11.05    10.50    10.01    9.57     9.17     8.80     8.40     8.07     7.78     7.45     
 7.12     6.81     6.50     6.21     5.90     5.56     5.20     4.83     4.46     4.13     
 3.84     3.59     3.41     3.37     3.41     3.51     3.61     3.74     3.88     4.03     
 4.19     4.36     4.55     4.76     4.98     5.22     5.47     5.73     6.02     6.34     
 6.67     7.02     7.39     7.79     8.24     8.73     9.22     9.72     10.29    10.89    
 11.52    12.20    12.96    13.75    14.60    15.55    16.57    17.63    18.73    19.92    
 21.22    22.65    24.19    25.76    27.40    29.16    31.12    33.15    35.29    37.56    
 40.03    42.62    45.37    48.33    51.49    54.86    58.58    62.61    66.90    71.58    
 76.85    82.53    88.66    95.44    102.66   110.59   119.60   128.60   137.75   147.85   
 157.95   168.48   178.97   189.76   200.52   211.18   221.83   232.01   242.07   251.64   
 260.52   268.67   275.91   282.50   287.98   292.58   296.36   298.47   299.62   299.74   
 298.83   296.88   294.02   290.08   284.93   278.15   270.03   261.32   251.44   240.76   
 215.82   
261168.52 258442.05 255280.63 251135.45 244512.12 236669.99 229927.84 222535.21 214586.97 205302.28 
 194319.56 180930.30 160899.21 141577.19 126297.09 111759.16 97228.51 82697.84 70171.96 61085.76 
 50571.97 43495.99 38286.43 33207.35 29596.41 24694.72 22138.96 20091.09 18144.14 16397.61 
 14884.08 13412.45 11878.76 10347.26 8815.79  7203.81  5688.92  4521.02  3551.07  2899.14  
 2237.01  1638.46  1137.75  829.22   522.96   359.39   261.77   205.95   163.55   131.72   
 112.60   93.61    83.90    71.53    61.21    54.42    48.58    42.62    37.28    33.55    
 30.37    27.01    24.01    19.57    15.81    14.41    13.65    12.93    12.08    11.34    
 10.73    10.10    9.57     9.09     8.52     8.03     7.54     6.97     6.32     5.66     
 5.04     4.49     4.00     3.80     3.79     3.88     3.99     4.12     4.27     4.41     
 4.58     4.76     4.96     5.18     5.40     5.63     5.89     6.18     6.48     6.79     
 7.13     7.49     7.88     8.29     8.73     9.20     9.68     10.21    10.78    11.39    
 12.06    12.77    13.52    14.35    15.25    16.19    17.16    18.17    19.32    20.55    
 21.83    23.19    24.62    26.17    27.82    29.55    31.41    33.39    35.52    37.75    
 40.12    42.59    45.29    48.22    51.35    54.74    58.39    62.49    66.94    71.84    
 77.11    82.97    89.46    96.49    104.03   112.30   121.14   130.24   139.82   149.93   
 160.41   170.93   181.43   192.12   202.94   213.52   223.63   234.20   244.78   253.94   
 262.37   269.93   277.00   283.35   288.67   293.77   297.37   299.97   301.28   301.59   
 301.43   299.16   295.63   291.12   285.83   279.28   272.04   263.97   254.58   244.70   
 215.82   
261168.52 259384.95 257001.15 253179.64 246333.42 238547.86 230757.54 222472.68 213470.96 202596.18 
 190919.86 178967.29 164875.15 151132.83 136205.24 122698.09 109159.12 96808.56 85189.13 75508.10 
 66878.13 59708.71 53364.55 47328.81 42571.21 38884.52 35860.07 32489.70 29375.66 26878.89 
 24701.18 22521.87 20139.93 18449.06 16842.71 15323.00 13861.30 12540.29 11374.10 10259.59 
 9240.91  8329.42  7423.80  6626.48  5857.02  5241.21  4573.12  4012.49  3485.35  3017.59  
 2549.84  2082.82  1691.01  1326.47  1029.40  784.37   606.98   475.78   386.41   319.43   
 267.91   216.39   165.05   132.58   109.41   91.30    75.81    63.10    52.27    44.42    
 38.04    32.69    28.75    24.49    18.26    16.48    15.25    13.53    12.12    10.93    
 9.56     7.88     5.81     4.08     3.55     3.61     3.70     3.78     3.88     4.00     
 4.13     4.28     4.45     4.65     4.87     5.10     5.34     5.59     5.87     6.16     
 6.47     6.78     7.12     7.49     7.88     8.32     8.82     9.33     9.86     10.43    
 11.06    11.74    12.48    13.23    14.02    14.91    15.89    16.91    17.94    19.05    
 20.24    21.54    22.98    24.46    26.00    27.67    29.49    31.46    33.57    35.73    
 38.09    40.62    43.34    46.21    49.33    52.70    56.40    60.34    64.52    69.22    
 74.58    80.38    86.67    93.59    101.05   109.24   118.55   127.85   137.39   147.60   
 157.91   168.77   179.29   190.20   200.98   211.63   222.32   232.49   242.40   252.01   
 261.05   269.45   277.17   284.66   290.94   296.35   300.65   303.87   306.02   307.05   
 306.82   305.26   302.49   298.60   293.72   287.81   281.20   273.67   265.22   256.15   
 215.82   
261168.52 260526.97 259637.12 257721.76 252505.99 245200.61 237989.24 230760.78 222179.39 211338.47 
 199276.30 187790.54 173463.06 159422.65 144281.88 129495.88 116014.60 102858.53 91135.71 80585.32 
 71727.70 64732.39 59099.49 54246.02 49927.20 46134.87 42841.49 39724.03 36810.87 34163.83 
 31684.12 29502.89 27431.86 25697.81 23963.75 22231.40 20650.39 19242.60 17847.36 16629.78 
 15528.09 14399.27 13326.00 12384.01 11365.48 10449.36 9638.85  8795.85  8048.07  7373.37  
 6760.48  6202.52  5691.82  5222.91  4811.68  4448.29  4104.83  3791.54  3492.96  3221.68  
 2959.85  2719.25  2478.99  2265.50  2056.56  1863.08  1689.49  1522.34  1369.45  1219.87  
 1089.20  962.60   846.28   739.36   641.90   551.13   467.63   390.50   324.52   273.74   
 222.95   172.33   135.71   106.12   76.00    39.52    10.42    5.25     3.82     3.35     
 3.03     2.78     2.58     2.61     2.55     2.16     1.59     1.69     1.75     1.75     
 1.72     1.73     1.78     1.83     1.91     1.95     1.96     2.03     2.17     2.17     
 2.27     2.44     2.49     2.61     2.76     2.94     3.19     3.35     3.50     3.67     
 3.85     4.07     4.31     4.59     4.89     5.22     5.59     6.01     6.48     6.99     
 7.52     8.12     8.78     9.44     10.15    10.95    11.82    12.82    13.92    15.09    
 16.39    17.84    19.49    21.28    23.21    25.38    27.72    30.21    32.87    35.75    
 38.72    41.94    45.33    48.94    52.76    56.91    61.25    65.86    70.77    75.85    
 81.06    86.46    92.07    98.06    104.06   110.13   116.34   122.91   131.16   138.48   
 146.55   155.04   163.54   172.99   182.53   192.55   202.67   212.85   222.87   232.54   
 215.82   
261168.52 261411.70 261373.92 260181.83 255801.85 248912.72 242581.30 235145.22 226905.17 217427.76 
 206232.70 193831.70 180864.57 166582.23 151415.33 136797.82 123373.68 111230.99 99100.93 88389.84 
 79341.27 72219.06 66466.41 61641.91 57412.43 53485.44 49961.79 46767.62 43757.32 40931.10 
 38391.98 36041.89 33685.58 31594.93 29601.80 27847.56 26301.66 24705.80 23228.73 21855.48 
 20534.76 19357.21 18085.89 16916.77 15867.56 14827.32 13810.96 12850.36 11941.81 11155.15 
 10369.41 9634.83  8989.93  8428.66  7936.09  7458.21  6987.69  6572.73  6197.27  5836.20  
 5487.32  5149.92  4832.97  4548.36  4259.64  3991.37  3724.09  3484.57  3242.06  3018.84  
 2808.66  2619.10  2433.43  2250.09  2078.42  1924.54  1780.88  1639.32  1505.82  1385.66  
 1276.07  1183.14  1090.34  997.55   913.97   837.83   767.78   704.49   648.97   601.91   
 553.50   507.71   465.29   426.62   389.97   356.46   325.78   300.05   276.72   252.36   
 229.51   210.66   193.44   177.53   162.16   147.74   133.29   120.44   107.60   96.71    
 86.46    77.96    69.61    61.35    52.95    44.53    36.92    31.09    21.26    7.77     
 4.22     3.88     3.91     4.08     4.31     4.53     4.84     5.17     5.52     5.98     
 6.65     7.40     8.15     9.47     10.54    10.56    10.51    10.93    11.72    12.58    
 13.58    14.72    15.97    18.23    19.47    20.97    22.79    24.66    26.73    29.09    
 31.67    34.14    35.87    38.93    42.32    45.82    49.56    53.53    57.77    62.16    
 66.85    71.85    77.08    82.64    88.42    94.51    100.65   107.07   113.85   122.24   
 129.42   137.70   146.71   156.16   165.99   176.31   187.14   198.12   208.79   219.79   
 215.82   
261168.52 262410.58 263484.76 263743.10 262067.20 257834.92 252042.00 245074.28 238106.60 231103.57 
 220738.71 209234.14 196154.41 181247.98 165753.61 150830.59 136629.85 122859.19 109923.05 98475.42 
 89031.51 81386.85 75392.71 70148.76 65320.55 61135.95 57412.48 53811.60 50517.76 47390.47 
 44595.05 42153.97 39785.67 37545.96 35459.46 33594.96 31727.06 29908.98 28281.33 26675.39 
 25222.30 23769.22 22317.75 21022.09 19705.49 18423.74 17239.59 16119.64 15060.59 14054.87 
 13108.01 12212.57 11382.90 10550.14 9820.50  9166.73  8573.95  8042.50  7566.40  7115.76  
 6711.83  6316.62  5944.41  5582.69  5255.68  4940.06  4644.20  4353.66  4070.80  3792.83  
 3519.85  3261.15  3021.25  2808.46  2595.67  2383.13  2195.18  2020.02  1859.50  1707.05  
 1567.91  1442.52  1331.72  1232.43  1137.31  1051.06  971.81   901.53   836.58   787.48   
 733.88   681.46   633.15   589.44   549.97   514.52   482.58   454.32   426.78   403.27   
 383.65   366.60   351.34   336.96   324.37   313.01   302.92   294.16   285.42   277.35   
 269.90   265.06   258.45   251.31   243.32   235.33   227.33   218.87   210.85   202.08   
 193.23   183.99   174.24   164.28   154.77   144.68   134.36   123.98   112.21   99.51    
 83.82    61.12    39.96    26.11    21.46    21.56    15.32    7.72     7.39     8.00     
 8.73     9.53     10.48    11.58    12.79    14.15    15.66    17.38    19.45    21.93    
 24.53    27.59    38.18    43.22    33.58    36.54    39.75    43.10    46.78    50.70    
 54.84    59.19    63.82    68.82    74.06    79.63    85.37    91.45    98.51    105.10   
 112.72   121.23   130.56   140.59   150.27   160.97   171.97   183.17   194.69   206.54   
 215.82   
261168.52 263335.85 265543.75 267034.86 267723.45 266416.71 262308.81 256304.42 248969.44 240508.17 
 231041.82 219695.79 206303.04 191539.21 176007.49 160111.24 145010.66 130868.76 117293.02 107123.18 
 96985.39 89551.28 83612.94 78196.61 73556.55 69169.59 65202.62 61456.17 57947.41 54595.97 
 51369.24 48425.91 45767.50 43111.63 40591.01 38310.28 36135.01 34044.17 32007.31 30068.58 
 28198.37 26285.12 24446.97 22677.11 21011.26 19541.24 18148.49 16839.93 15719.16 14655.58 
 13706.53 12811.36 11992.21 11238.67 10485.74 9813.55  9202.96  8665.10  8161.72  7680.82  
 7188.38  6716.53  6293.07  5909.57  5533.30  5162.33  4820.84  4484.05  4147.30  3836.76  
 3562.36  3306.40  3062.15  2821.74  2601.92  2395.59  2195.03  2008.23  1835.26  1677.74  
 1535.26  1408.25  1290.23  1194.61  1099.16  1003.70  926.76   851.52   791.53   745.39   
 693.94   643.27   600.12   562.60   529.85   501.96   477.36   456.74   438.81   422.85   
 408.91   396.98   386.16   376.77   367.27   358.25   350.60   343.37   336.49   329.09   
 321.65   314.81   308.94   302.90   296.38   290.37   285.24   279.79   274.31   269.67   
 264.89   260.86   256.87   251.80   245.99   240.03   234.21   228.51   222.06   215.88   
 208.14   198.66   189.98   181.18   172.34   162.93   153.73   143.10   131.85   118.23   
 104.59   85.07    36.07    18.30    15.74    15.14    13.83    14.35    16.13    18.08    
 20.24    22.53    25.05    27.77    30.54    33.43    36.80    40.27    44.37    55.80    
 63.85    54.46    58.72    63.55    68.70    74.17    79.76    85.67    91.82    98.33    
 105.38   113.03   121.47   130.46   140.55   151.36   162.64   174.31   186.20   198.62   
 215.82   
261168.52 264145.30 267281.64 270448.76 272839.31 273412.37 271533.51 267286.36 261013.67 252947.72 
 242480.31 231982.53 218715.97 203888.67 188067.45 172504.10 157586.76 143245.32 129913.48 118296.52 
 108783.10 101155.94 94818.28 89365.11 84123.17 79288.66 74654.98 70213.69 65926.38 61897.12 
 58193.75 54732.87 51469.68 48476.36 45446.01 42658.18 39884.34 36950.01 34214.36 31822.42 
 29624.32 27695.61 25997.39 24406.01 22815.35 21292.01 19898.28 18567.32 17268.73 16018.87 
 14938.81 13957.06 13020.06 12154.66 11337.43 10611.21 9953.53  9336.51  8753.01  8213.74  
 7703.98  7205.18  6713.83  6239.09  5806.57  5415.08  5052.03  4710.03  4376.74  4065.69  
 3763.30  3477.91  3200.85  2947.46  2720.60  2493.82  2275.92  2072.22  1886.42  1715.33  
 1559.62  1410.83  1279.39  1167.89  1070.67  983.09   901.19   823.97   767.16   724.08   
 678.71   630.45   587.80   549.95   518.89   493.42   471.83   452.70   436.07   422.24   
 411.26   402.29   394.71   387.61   381.04   375.12   369.16   363.15   357.06   351.28   
 345.32   339.67   333.84   328.23   322.65   316.73   310.11   304.37   298.72   293.59   
 288.25   282.64   277.34   271.90   266.68   261.29   256.12   250.95   246.33   240.52   
 234.72   229.83   224.74   219.40   213.87   207.84   201.77   194.09   186.14   177.03   
 167.16   156.55   145.81   129.48   118.40   112.71   104.74   77.20    28.32    26.82    
 25.40    22.99    22.82    25.62    28.64    31.86    35.29    38.95    42.78    46.73    
 51.07    55.42    61.82    86.15    67.56    72.58    77.98    83.91    89.99    96.48    
 103.30   110.59   118.22   126.67   135.69   146.08   157.53   169.34   181.84   194.79   
 215.82   
261168.52 264933.98 269022.36 272993.92 275889.76 276546.04 274248.81 269936.30 264094.79 256768.56 
 247639.97 236904.94 224604.98 210899.61 195670.76 180310.57 165428.00 151461.62 138576.81 127251.95 
 119836.47 111941.11 104041.15 98057.48 92380.16 87102.84 81936.06 76994.40 72298.92 68030.57 
 63857.66 59753.12 55816.03 51971.83 48358.91 45014.28 41962.08 39246.26 36742.72 34440.28 
 32310.50 30309.44 28400.91 26608.41 24872.58 23208.76 21537.60 19985.65 18557.94 17250.52 
 15955.49 14724.49 13640.99 12697.87 11799.75 11087.58 10377.05 9717.63  9106.59  8466.52  
 7882.26  7369.60  6889.46  6450.27  6025.17  5628.78  5253.19  4903.56  4547.71  4199.86  
 3880.30  3579.10  3308.62  3049.30  2799.75  2569.61  2346.90  2132.71  1936.32  1758.61  
 1591.95  1447.94  1316.21  1199.01  1100.73  1002.64  916.96   839.90   787.84   746.45   
 699.43   646.38   600.83   561.11   528.95   503.16   482.25   464.59   448.52   434.64   
 423.29   414.21   406.41   398.85   392.10   385.58   379.47   373.52   368.01   362.41   
 357.20   352.08   346.62   341.32   336.03   331.21   326.19   320.65   314.57   308.49   
 303.37   297.60   292.35   287.40   282.80   277.86   273.53   268.42   263.27   258.24   
 253.47   248.14   242.80   237.42   232.21   218.16   210.71   205.79   200.98   195.17   
 188.24   181.94   176.25   170.60   165.35   157.50   148.11   142.70   137.40   127.33   
 77.26    26.87    25.33    27.03    30.00    33.33    37.27    41.18    45.37    49.89    
 54.50    59.39    64.26    70.05    99.23    80.63    80.76    86.17    91.91    98.12    
 105.03   112.30   120.20   128.39   137.44   147.66   158.98   170.88   183.48   196.89   
 215.82   
261168.52 265299.06 269707.39 274139.86 277235.25 277805.49 275855.58 271786.21 265974.80 258491.18 
 248134.61 237778.06 227387.43 213967.96 199372.26 184396.06 169706.12 155466.21 142440.92 131333.16 
 122318.81 114750.02 108220.92 102214.28 96529.85 90979.37 85712.88 80700.17 76055.88 71456.65 
 66982.90 62766.69 58567.92 54523.30 50811.59 47476.83 44554.66 41710.95 39141.19 36649.69 
 34407.84 32206.46 30287.81 28306.25 26373.95 24599.58 22826.83 21198.63 19671.94 18180.20 
 16792.66 15466.05 14329.78 13251.39 12334.35 11527.70 10789.71 10086.64 9383.27  8724.52  
 8141.10  7616.22  7123.39  6660.24  6229.76  5822.43  5436.85  5055.50  4693.98  4347.08  
 4015.37  3712.47  3436.66  3178.52  2923.33  2678.75  2434.40  2212.91  2011.12  1824.92  
 1644.71  1485.74  1347.25  1227.96  1117.54  1018.97  929.93   849.28   792.44   750.01   
 704.14   652.07   605.97   567.38   536.81   511.93   489.11   469.11   450.70   435.00   
 422.36   412.67   403.99   396.83   390.54   384.52   378.97   373.59   368.26   363.03   
 357.83   352.68   347.70   342.80   338.22   333.93   329.30   324.71   320.20   314.70   
 310.04   305.45   300.77   296.14   291.25   286.61   282.03   277.44   272.85   267.99   
 262.92   257.38   251.83   246.36   240.00   233.56   220.01   213.09   208.34   203.73   
 199.07   193.79   188.59   183.48   178.30   173.09   167.96   163.32   158.49   151.44   
 134.95   38.93    30.50    30.79    31.89    34.77    38.97    43.40    47.99    52.85    
 57.94    63.15    68.52    74.41    87.42    108.98   85.03    89.69    95.00    101.07   
 107.74   115.24   123.15   131.43   140.43   150.72   161.90   174.12   187.15   200.83   
 215.82   
261168.52 265506.74 270007.93 273798.72 275962.67 276017.74 273926.94 269881.34 264119.72 256446.93 
 246782.14 235835.66 223574.35 210195.45 195700.59 180485.25 165818.68 151984.28 139499.83 128212.54 
 119226.42 112181.11 105152.94 99104.73 93281.99 87871.83 82634.85 77724.76 73087.57 68673.91 
 64372.83 60297.67 56323.24 52377.32 48672.47 45340.86 42288.82 39566.90 37130.79 34745.38 
 32644.34 30593.42 28688.89 26880.43 25112.29 23352.40 21659.70 20125.54 18663.77 17384.33 
 16105.80 14863.22 13778.73 12798.32 11901.72 11120.38 10340.06 9673.52  9047.18  8416.75  
 7845.56  7319.94  6842.38  6398.07  5990.87  5597.61  5224.48  4866.73  4510.72  4173.93  
 3852.53  3555.67  3285.78  3026.95  2779.02  2546.38  2328.29  2119.93  1921.66  1743.09  
 1574.30  1429.20  1293.11  1197.41  1091.15  984.78   901.00   826.69   773.66   731.54   
 684.91   631.95   585.83   548.21   515.93   490.01   468.59   451.60   436.59   422.89   
 411.61   402.73   395.37   388.89   382.63   376.76   371.04   365.86   360.82   355.60   
 350.60   346.25   341.78   336.91   332.56   328.43   324.52   319.50   313.86   308.64   
 303.34   298.00   292.65   287.31   281.66   276.31   271.10   265.71   260.46   255.03   
 249.04   242.92   236.10   229.71   224.22   211.90   207.87   203.27   198.75   192.68   
 186.96   181.70   175.49   169.19   162.67   150.94   143.30   136.30   128.27   80.49    
 32.39    30.19    29.99    30.49    33.57    37.78    42.36    47.11    52.15    57.41    
 62.83    68.67    74.93    87.46    105.82   88.27    92.61    97.35    102.55   107.84   
 114.14   121.36   129.22   137.34   146.30   156.85   168.18   180.50   193.43   207.17   
 215.82   
261168.52 265101.94 268869.85 271916.05 273723.56 273785.09 272372.13 269208.43 264190.59 256878.70 
 245976.56 235074.43 224136.54 210015.42 194428.89 178778.22 163353.36 148747.59 135028.45 123172.38 
 112811.99 104582.69 97887.93 92088.87 86640.25 81613.68 76747.42 72157.01 67660.55 63466.78 
 59632.01 56138.09 52774.23 49443.73 46292.46 43356.69 40374.24 37433.36 34689.44 32328.83 
 30187.60 28331.30 26616.79 25032.76 23448.73 21865.61 20365.38 19012.54 17666.38 16382.99 
 15255.79 14213.87 13248.13 12331.59 11474.63 10722.19 10018.22 9376.52  8782.20  8223.04  
 7709.11  7216.37  6732.88  6257.44  5821.13  5442.00  5078.98  4732.10  4404.22  4101.83  
 3799.58  3509.42  3232.61  2974.13  2749.53  2524.92  2300.53  2096.57  1905.67  1736.66  
 1576.72  1426.37  1287.22  1170.31  1072.13  981.48   900.86   825.71   761.50   716.44   
 673.71   625.10   579.30   538.46   504.98   477.82   455.92   436.49   419.70   405.73   
 395.26   386.38   378.72   371.62   365.38   359.57   354.11   348.47   342.79   337.01   
 331.84   326.30   321.49   316.94   312.42   306.79   301.37   295.99   290.40   285.15   
 279.44   273.68   268.22   263.20   258.34   253.53   248.54   243.59   237.21   230.85   
 225.67   220.26   214.74   209.10   203.05   196.86   188.24   179.96   172.15   163.87   
 156.06   147.99   134.86   126.38   118.16   106.65   76.32    28.69    25.74    25.50    
 24.59    26.31    29.79    33.65    37.67    41.94    46.45    51.21    56.44    62.11    
 68.52    77.59    95.73    83.73    88.23    93.10    98.08    103.77   109.73   115.83   
 121.87   128.58   135.61   143.94   153.26   163.56   174.54   186.09   198.51   211.41   
 215.82   
261168.52 264493.12 267149.51 269133.05 270090.39 269862.25 268331.87 265103.62 259899.12 252441.32 
 242296.26 230126.88 216292.24 201619.60 186115.83 170448.51 155135.96 140998.92 127696.46 117420.17 
 106701.53 95978.58 89038.56 83205.65 78001.42 73343.57 69117.70 65078.80 61280.83 57720.17 
 54377.22 51279.20 48402.87 45504.98 42814.67 40451.61 38087.31 35754.36 33643.25 31488.91 
 29455.50 27423.29 25543.84 23712.83 21956.72 20456.07 19051.71 17754.04 16559.21 15467.21 
 14441.57 13444.95 12554.35 11762.68 11001.38 10240.35 9571.80  8963.66  8404.54  7885.57  
 7384.03  6911.35  6476.50  6080.92  5682.15  5317.10  4978.58  4640.69  4296.45  3976.80  
 3691.15  3428.84  3184.49  2939.60  2710.18  2501.96  2296.32  2099.84  1924.90  1760.48  
 1610.86  1473.68  1350.12  1233.36  1140.34  1047.56  954.77   877.43   807.50   755.00   
 707.58   656.09   609.14   568.02   532.72   501.87   475.59   452.82   433.15   415.40   
 400.32   387.14   375.65   365.54   356.68   347.92   340.34   333.04   326.65   319.70   
 312.29   304.78   298.60   292.17   286.12   280.25   274.21   268.53   262.96   256.84   
 251.18   245.57   239.88   234.01   228.18   221.25   213.70   206.79   201.65   197.20   
 189.81   181.96   173.68   164.45   154.96   145.85   136.11   122.83   109.53   96.23    
 71.21    33.40    23.17    19.38    16.97    16.63    18.51    20.82    23.37    26.23    
 29.29    32.52    36.14    40.11    44.39    48.99    54.14    63.94    74.28    68.47    
 72.83    77.69    82.59    87.52    92.68    98.43    104.15   110.05   116.59   122.35   
 128.32   134.99   142.74   151.39   160.70   170.53   180.96   191.92   203.28   215.71   
 215.82   
261168.52 263495.11 265069.57 265894.63 266205.09 265989.35 264305.91 260900.92 254280.87 244860.54 
 235440.21 225987.05 213540.54 199240.59 183943.69 168970.39 153612.31 138750.68 124554.79 112038.12 
 100811.00 91139.79 83149.46 76807.68 71669.32 67120.48 62835.00 59004.66 55643.16 52285.73 
 49250.34 46352.51 43553.13 41179.33 39078.46 36896.53 34808.58 32734.96 30881.53 29139.45 
 27553.36 25949.48 24471.53 22994.71 21622.84 20220.62 18942.34 17755.34 16646.08 15508.60 
 14430.95 13450.62 12494.73 11593.01 10717.35 9949.92  9248.85  8596.29  8026.96  7558.93  
 7110.98  6685.77  6273.57  5888.71  5536.78  5214.13  4899.94  4597.39  4307.69  4032.79  
 3768.22  3506.91  3252.14  3015.01  2794.63  2583.86  2373.30  2182.36  2013.17  1853.56  
 1702.64  1560.91  1432.52  1324.28  1223.89  1128.11  1038.65  957.42   888.67   824.57   
 772.55   720.01   666.75   617.35   573.81   534.67   499.44   467.16   439.10   411.08   
 386.96   367.43   350.44   334.79   320.69   307.58   295.63   283.81   272.95   263.36   
 254.87   246.97   239.54   232.11   224.65   215.44   206.44   197.50   187.87   178.55   
 169.69   160.68   152.02   143.77   135.17   126.27   116.50   105.44   92.82    77.33    
 59.22    39.25    28.40    22.42    15.29    9.30     9.49     10.31    11.25    12.30    
 13.49    14.81    16.28    17.98    19.83    21.92    24.48    27.31    30.65    36.49    
 45.03    40.11    43.01    46.62    50.09    53.82    58.17    62.67    67.46    72.35    
 77.48    82.77    88.19    93.77    99.42    105.26   111.38   117.65   123.98   130.70   
 137.69   145.18   153.14   161.73   170.82   180.40   190.41   200.69   211.36   222.11   
 215.82   
261168.52 262280.70 262446.34 262055.44 261307.14 259814.83 256590.96 250374.91 243229.69 235645.23 
 226724.84 216225.23 204065.93 190912.72 176222.21 161441.22 146699.83 132544.80 119295.87 107658.66 
 96036.56 86257.33 78232.98 71398.61 65749.34 61100.99 56950.42 53338.75 49877.66 46629.25 
 43527.65 40779.60 38277.49 35977.22 33874.51 32000.65 30038.55 28244.24 26471.75 24897.92 
 23568.57 22124.23 20749.20 19457.03 18239.97 17117.56 15964.61 14889.76 13842.97 12874.79 
 11948.93 11156.56 10365.50 9623.16  8993.96  8397.53  7832.75  7342.48  6873.88  6445.17  
 6041.41  5677.78  5329.32  4996.07  4680.02  4389.12  4096.07  3834.76  3571.73  3317.83  
 3085.05  2874.68  2679.73  2484.35  2302.06  2131.00  1965.20  1808.97  1665.53  1531.72  
 1406.74  1294.13  1187.99  1095.98  1004.08  920.94   839.92   764.91   698.19   641.34   
 589.95   545.93   502.26   461.29   421.62   385.06   350.81   319.79   291.44   264.88   
 241.87   216.84   197.40   179.03   161.82   145.65   131.06   119.19   107.33   97.43    
 87.72    78.18    68.81    58.89    49.82    42.57    35.43    18.10    6.11     5.16     
 5.23     5.39     5.63     5.90     6.23     6.66     7.15     7.81     8.59     9.48     
 10.38    11.49    12.52    13.01    13.50    14.18    15.14    16.14    17.29    18.51    
 19.67    21.13    22.68    25.61    28.17    29.79    30.97    34.22    37.83    40.74    
 43.76    45.93    48.66    52.63    56.80    61.09    65.67    70.52    75.53    80.82    
 86.33    91.99    97.84    103.93   110.12   116.48   122.96   129.68   136.66   143.75   
 151.20   158.95   167.26   175.87   184.97   194.66   204.67   214.67   224.59   235.20   
 215.82   
261168.52 261293.99 260860.77 260184.54 259031.58 256024.20 249953.99 243135.37 236110.71 227663.23 
 217935.89 206377.93 194601.81 181559.63 166923.45 152863.16 137979.97 123954.72 111681.76 99430.53 
 87179.30 77269.43 69386.82 62986.97 57672.95 52946.99 48862.88 45296.68 41919.09 38815.71 
 35940.38 33387.14 31011.24 28925.32 26799.31 25016.13 23252.53 21627.28 20161.48 18772.11 
 17482.21 16327.54 15115.40 14044.48 13101.46 12029.72 11107.47 10186.90 9349.20  8566.43  
 7845.83  7208.17  6627.09  6054.29  5549.93  5113.15  4699.14  4332.98  3974.96  3652.63  
 3357.91  3085.42  2824.81  2593.90  2375.75  2170.93  1978.67  1799.35  1628.18  1462.69  
 1312.48  1179.96  1047.63  915.29   803.60   701.21   605.59   515.17   432.91   361.46   
 300.17   245.41   196.32   155.37   117.84   80.35    42.86    13.72    7.74     6.49     
 6.05     5.73     5.56     5.43     5.42     5.49     5.52     4.94     5.00     5.25     
 5.45     5.61     5.77     6.02     6.27     6.54     6.91     7.22     7.57     7.96     
 8.31     8.74     9.20     9.66     10.13    10.73    11.37    12.07    12.77    13.53    
 14.35    15.23    16.18    17.19    18.27    19.41    20.70    22.10    23.57    25.12    
 26.81    28.58    30.52    32.63    34.91    37.31    39.95    42.79    46.01    49.51    
 53.33    57.74    62.71    68.24    74.26    80.87    88.21    96.07    104.63   113.68   
 123.28   133.12   143.13   153.53   164.14   174.69   184.97   195.17   205.52   215.51   
 224.92   234.51   244.11   251.75   259.03   265.65   271.41   276.43   280.36   283.29   
 285.00   285.54   284.90   283.26   280.53   276.75   271.84   265.80   258.59   250.54   
 215.82   
261168.52 260564.57 259563.31 258520.56 257274.29 255440.10 250172.90 242618.83 235064.78 227493.89 
 217743.35 206853.55 194016.01 181197.23 163715.83 145946.83 128389.09 112243.64 99510.17 87638.53 
 76529.82 66103.75 58657.53 52070.70 46226.45 40936.36 37304.04 34138.30 31265.72 28382.16 
 25588.76 22802.17 20906.45 18844.61 16793.53 15067.72 13563.15 12115.39 10770.49 9639.78  
 8637.70  7725.75  6884.10  6190.81  5579.30  4978.32  4336.75  3699.62  3157.19  2614.76  
 2073.26  1631.39  1298.45  1027.55  831.77   682.56   565.61   462.77   378.75   309.57   
 257.65   205.88   169.03   139.01   113.83   94.25    76.47    62.93    52.51    45.07    
 38.82    33.47    30.04    26.55    23.41    19.25    13.29    12.35    11.36    10.37    
 9.41     8.40     7.43     6.28     5.04     3.97     3.66     3.73     3.84     3.95     
 4.08     4.22     4.37     4.54     4.72     4.92     5.12     5.35     5.58     5.86     
 6.13     6.40     6.69     7.00     7.34     7.70     8.11     8.53     9.02     9.52     
 10.03    10.60    11.22    11.85    12.53    13.28    14.09    14.96    15.84    16.84    
 17.84    18.96    20.15    21.40    22.70    24.18    25.73    27.42    29.24    31.12    
 33.15    35.31    37.63    40.05    42.65    45.42    48.45    51.71    55.04    58.73    
 62.94    67.59    72.79    78.58    84.87    91.78    99.21    107.36   115.89   125.72   
 135.55   145.68   155.73   166.16   176.70   187.09   197.61   207.53   217.65   227.12   
 236.20   244.93   252.78   260.29   267.05   273.05   278.02   282.21   285.47   287.69   
 288.46   287.88   286.30   283.50   279.60   274.52   268.22   260.90   252.16   242.72   
 215.82   
261168.52 259726.20 258043.50 257906.68 258024.57 257312.70 253579.09 244932.31 226393.51 208686.71 
 195274.85 179611.97 165946.61 147937.71 130476.64 117310.83 102241.56 87152.45 75893.87 63744.32 
 54186.39 44152.38 36161.83 31838.67 28706.59 25757.73 23259.07 21143.94 18979.45 17040.00 
 15273.69 13109.33 11049.38 8990.72  6932.06  5519.74  4490.16  3613.05  2759.94  2005.08  
 1465.44  1116.95  770.80   424.64   318.23   248.27   195.52   155.73   128.30   108.88   
 89.54    77.08    66.06    57.35    50.79    45.30    40.58    36.60    33.12    30.69    
 28.42    26.70    25.04    23.21    20.79    16.82    12.45    11.40    10.74    10.20    
 9.71     9.24     8.85     8.42     7.99     7.61     7.21     6.81     6.39     5.98     
 5.56     5.13     4.72     4.37     4.12     4.05     4.09     4.21     4.35     4.49     
 4.65     4.82     5.00     5.21     5.43     5.66     5.91     6.17     6.45     6.75     
 7.08     7.43     7.79     8.17     8.57     9.01     9.48     9.96     10.46    10.98    
 11.59    12.23    12.89    13.62    14.41    15.26    16.14    17.06    18.05    19.13    
 20.27    21.47    22.76    24.16    25.63    27.12    28.80    30.60    32.49    34.50    
 36.56    38.82    41.21    43.78    46.52    49.48    52.67    56.26    60.10    64.31    
 68.87    73.91    79.56    85.77    92.50    99.92    107.96   116.37   125.33   134.93   
 144.82   154.82   164.84   175.16   185.52   195.52   205.43   215.21   224.60   233.63   
 242.73   251.83   259.18   265.75   271.58   276.58   280.79   284.21   286.24   287.22   
 286.88   285.62   282.41   278.53   273.60   267.48   259.93   251.50   242.14   231.35   
 215.82   
261168.52 259084.14 257414.73 257656.68 258014.32 257829.97 242546.37 227256.75 211374.61 196707.10 
 176406.35 164006.40 144920.11 128928.55 112018.73 96882.33 76686.16 67048.84 59395.26 51861.17 
 45355.07 39529.16 34129.99 28832.90 23535.81 18258.57 15194.57 11105.00 9407.56  6557.41  
 4535.52  2787.00  1049.04  654.65   445.17   351.03   256.89   163.24   122.67   96.30    
 79.13    67.06    56.69    47.74    42.34    38.80    35.23    31.93    29.88    28.07    
 26.29    24.63    23.62    22.45    20.96    19.54    18.06    16.48    13.61    10.95    
 10.24    9.77     9.36     8.98     8.64     8.29     7.99     7.73     7.46     7.20     
 6.97     6.73     6.50     6.25     5.97     5.71     5.49     5.25     5.03     4.82     
 4.60     4.39     4.22     4.07     4.03     4.06     4.14     4.26     4.39     4.53     
 4.67     4.82     4.98     5.18     5.39     5.60     5.85     6.11     6.40     6.70     
 7.02     7.33     7.70     8.08     8.51     8.95     9.43     9.92     10.45    11.01    
 11.60    12.23    12.93    13.67    14.44    15.29    16.27    17.29    18.32    19.42    
 20.65    21.97    23.45    24.95    26.50    28.17    29.99    31.98    34.03    36.19    
 38.50    41.00    43.64    46.43    49.41    52.65    56.17    60.01    64.00    68.43    
 73.40    78.70    84.50    90.85    97.78    105.22   113.15   122.06   130.98   140.57   
 150.16   160.19   170.30   180.60   191.12   201.32   211.65   221.59   231.26   240.41   
 248.90   256.81   263.77   270.24   275.79   280.24   283.52   285.65   286.87   286.99   
 285.93   283.69   280.09   275.52   269.82   263.02   255.00   246.21   235.87   225.04   
 215.82   
261168.52 258471.82 257011.09 257314.16 257436.84 241720.16 226594.27 211755.86 196166.23 181997.70 
 162719.84 145886.32 128485.05 113902.31 99350.44 84798.55 77207.92 69064.75 61060.45 53875.54 
 38582.54 29311.13 22204.59 16437.04 11180.97 8447.70  5741.46  1163.91  746.45   382.46   
 262.52   181.67   139.91   111.24   82.72    74.85    59.68    50.83    44.98    40.54    
 34.60    31.30    29.19    28.29    25.01    23.47    21.33    20.29    18.96    17.76    
 16.95    16.20    14.37    11.61    9.20     8.44     8.17     7.99     7.83     7.61     
 7.38     7.20     7.04     6.85     6.68     6.54     6.39     6.21     6.03     5.85     
 5.67     5.50     5.35     5.21     5.07     4.92     4.79     4.65     4.53     4.42     
 4.33     4.25     4.19     4.17     4.17     4.21     4.30     4.41     4.52     4.66     
 4.79     4.94     5.12     5.31     5.51     5.72     5.96     6.22     6.48     6.78     
 7.10     7.45     7.80     8.20     8.63     9.08     9.55     10.04    10.57    11.17    
 11.81    12.49    13.23    14.01    14.87    15.78    16.75    17.75    18.90    20.13    
 21.43    22.85    24.35    25.99    27.74    29.55    31.49    33.66    35.93    38.33    
 40.87    43.52    46.36    49.45    52.80    56.39    60.17    64.27    68.67    73.54    
 78.73    84.42    90.60    97.29    104.50   112.28   120.65   129.24   138.36   147.94   
 157.71   167.54   177.39   187.47   197.53   207.38   217.03   226.52   236.40   246.30   
 254.64   262.54   269.63   275.87   280.93   284.76   287.31   288.82   289.09   288.45   
 286.92   284.00   280.19   275.26   268.67   261.65   253.51   244.58   233.99   222.73   
 215.82   
261168.52 257966.75 255582.38 255599.54 244224.61 232849.65 221455.72 208042.51 186781.45 174209.94 
 155005.57 135370.54 114191.51 99898.87 93733.22 87364.77 80538.98 73144.53 57529.83 45083.33 
 35239.07 25394.81 15592.42 10903.53 5786.96  711.75   272.77   217.31   161.84   106.43   
 56.51    38.28    29.42    23.88    20.99    18.85    17.44    16.19    15.25    14.50    
 13.59    12.77    12.17    11.46    10.93    10.45    10.00    9.68     9.34     8.81     
 7.99     6.85     6.82     6.94     6.89     6.76     6.54     6.34     6.11     5.90     
 5.73     5.55     5.42     5.25     5.11     4.96     4.84     4.69     4.56     4.46     
 4.37     4.28     4.21     4.16     4.11     4.06     4.00     3.97     3.94     3.93     
 3.93     3.93     3.93     3.94     3.97     4.02     4.09     4.17     4.27     4.39     
 4.51     4.66     4.81     4.99     5.18     5.37     5.57     5.81     6.07     6.38     
 6.69     7.03     7.39     7.77     8.20     8.66     9.15     9.65     10.19    10.74    
 11.36    12.03    12.77    13.52    14.35    15.27    16.27    17.34    18.44    19.59    
 20.87    22.28    23.82    25.42    27.12    29.01    31.03    33.19    35.47    37.98    
 40.60    43.37    46.44    49.62    53.02    56.67    60.65    64.96    69.42    74.32    
 79.80    85.67    91.99    98.88    106.32   114.34   123.44   132.54   141.82   152.01   
 161.90   172.31   182.72   193.22   203.64   213.79   223.72   233.08   242.21   250.70   
 258.92   266.70   273.91   280.72   286.26   290.36   293.45   295.28   295.57   294.51   
 291.96   288.46   284.39   279.56   273.65   266.33   257.48   247.53   236.93   225.06   
 215.82   
261168.52 257556.36 254465.23 254115.65 253755.42 234920.35 219329.10 205087.46 184250.51 170263.04 
 151605.05 133684.00 119923.40 106209.20 92494.99 85866.33 78815.40 71313.28 51664.24 39842.44 
 28177.59 21895.97 13401.25 7168.16  960.77   133.51   83.40    40.83    29.59    24.57    
 21.54    18.32    16.96    15.85    14.35    12.68    11.46    10.37    9.55     8.97     
 8.49     8.22     7.97     7.57     7.19     6.83     6.52     6.14     5.87     5.77     
 5.70     5.54     5.35     5.23     5.15     5.00     4.89     4.75     4.65     4.59     
 4.57     4.53     4.49     4.47     4.47     4.47     4.47     4.46     4.45     4.44     
 4.43     4.42     4.42     4.41     4.35     4.30     4.24     4.18     4.14     4.12     
 4.09     4.08     4.08     4.08     4.08     4.09     4.13     4.21     4.32     4.44     
 4.58     4.70     4.87     5.04     5.22     5.41     5.63     5.89     6.17     6.47     
 6.80     7.17     7.55     7.94     8.37     8.84     9.33     9.82     10.33    10.91    
 11.56    12.27    13.03    13.83    14.73    15.68    16.67    17.71    18.90    20.17    
 21.51    22.91    24.40    26.07    27.85    29.73    31.74    34.01    36.44    39.03    
 41.78    44.69    47.76    51.00    54.63    58.50    62.65    67.00    71.68    76.64    
 82.05    88.06    94.73    101.91   109.55   117.64   125.97   135.15   144.99   155.12   
 165.30   175.58   185.81   196.41   206.82   216.95   226.62   236.53   246.45   254.64   
 262.42   269.77   276.75   283.09   288.70   292.87   295.76   297.40   297.72   296.60   
 293.73   289.90   285.57   280.44   274.94   267.83   259.59   250.51   240.42   228.90   
 215.82   
