IESNA:LM-63-2002
[TEST] 1
[TESTLAB] AOK
[TESTDATE] 2022-05-12
[ISSUEDATE] 2022-05-12 09:04:12
[NEARFIELD] 
[LAMPPOSITION] 0,0
[OTHER] EVERFINE GO-2000A_V1 SYSTEM
[MANUFAC] AOK
[LUMCAT] A
[LUMINAIRE] AOK-600WiSF-NVY-S5-00-5070-3585D-P
[LAMPCAT] B
[LAMP] 5050
[BALLAST] E
[BALLASTCAT] F
[OTHER] 
[OTHER] Gamma(deg)    Fz(lm)      Ft(lm)     %Lum    %Lamp
[OTHER]   0- 10      6197.03     6197.03     7.99     7.99
[OTHER]  10- 20     13248.34    19445.36    25.07    25.07
[OTHER]  20- 30     15354.23    34799.59    44.86    44.86
[OTHER]  30- 40     14647.33    49446.92    63.74    63.74
[OTHER]  40- 50     11970.12    61417.04    79.17    79.17
[OTHER]  50- 60      8495.36    69912.40    90.13    90.13
[OTHER]  60- 70      4606.58    74518.99    96.06    96.06
[OTHER]  70- 80      1799.14    76318.12    98.38    98.38
[OTHER]  80- 90       531.69    76849.81    99.07    99.07
[OTHER]  90-100       202.53    77052.34    99.33    99.33
[OTHER] 100-110       130.59    77182.93    99.50    99.50
[OTHER] 110-120       106.70    77289.63    99.64    99.64
[OTHER] 120-130        87.90    77377.53    99.75    99.75
[OTHER] 130-140        69.46    77446.99    99.84    99.84
[OTHER] 140-150        55.39    77502.38    99.91    99.91
[OTHER] 150-160        40.15    77542.53    99.96    99.96
[OTHER] 160-170        22.15    77564.68    99.99    99.99
[OTHER] 170-180         7.80    77572.48   100.00   100.00
[OTHER] 
TILT=NONE
1 77572 1 181 25 1 2 0.150 0.200 0.000
1.000 1 593.63
0.0    1.0    2.0    3.0    4.0    5.0    6.0    7.0    8.0    9.0    
 10.0   11.0   12.0   13.0   14.0   15.0   16.0   17.0   18.0   19.0   
 20.0   21.0   22.0   23.0   24.0   25.0   26.0   27.0   28.0   29.0   
 30.0   31.0   32.0   33.0   34.0   35.0   36.0   37.0   38.0   39.0   
 40.0   41.0   42.0   43.0   44.0   45.0   46.0   47.0   48.0   49.0   
 50.0   51.0   52.0   53.0   54.0   55.0   56.0   57.0   58.0   59.0   
 60.0   61.0   62.0   63.0   64.0   65.0   66.0   67.0   68.0   69.0   
 70.0   71.0   72.0   73.0   74.0   75.0   76.0   77.0   78.0   79.0   
 80.0   81.0   82.0   83.0   84.0   85.0   86.0   87.0   88.0   89.0   
 90.0   91.0   92.0   93.0   94.0   95.0   96.0   97.0   98.0   99.0   
 100.0  101.0  102.0  103.0  104.0  105.0  106.0  107.0  108.0  109.0  
 110.0  111.0  112.0  113.0  114.0  115.0  116.0  117.0  118.0  119.0  
 120.0  121.0  122.0  123.0  124.0  125.0  126.0  127.0  128.0  129.0  
 130.0  131.0  132.0  133.0  134.0  135.0  136.0  137.0  138.0  139.0  
 140.0  141.0  142.0  143.0  144.0  145.0  146.0  147.0  148.0  149.0  
 150.0  151.0  152.0  153.0  154.0  155.0  156.0  157.0  158.0  159.0  
 160.0  161.0  162.0  163.0  164.0  165.0  166.0  167.0  168.0  169.0  
 170.0  171.0  172.0  173.0  174.0  175.0  176.0  177.0  178.0  179.0  
 180.0  
0.0    15.0   30.0   45.0   60.0   75.0   90.0   105.0  120.0  135.0  
 150.0  165.0  180.0  195.0  210.0  225.0  240.0  255.0  270.0  285.0  
 300.0  315.0  330.0  345.0  360.0  
67719.35 64577.53 62089.23 60662.52 59211.16 51776.25 45817.18 38960.03 31133.97 25541.59 
 17845.37 12676.87 7492.79  2308.21  1703.53  1147.72  591.92   36.11    17.41    14.28    
 12.45    11.21    9.93     9.07     8.37     7.54     6.91     6.38     5.91     5.50     
 5.24     5.00     4.83     4.67     4.54     4.41     4.33     4.32     4.42     4.48     
 4.49     4.55     4.58     4.58     4.48     4.38     4.29     4.19     4.14     4.09     
 3.96     3.89     3.79     3.75     3.72     3.66     3.60     3.56     3.53     3.49     
 3.44     3.41     3.40     3.36     3.30     3.27     3.26     3.25     3.23     3.20     
 3.18     3.15     3.13     3.13     3.13     3.14     3.14     3.14     3.14     3.15     
 3.19     3.24     3.31     3.38     3.47     3.57     3.67     3.81     3.96     4.12     
 4.32     4.54     4.79     5.06     5.36     5.68     6.06     6.47     6.91     7.36     
 7.86     8.40     9.00     9.63     10.33    11.08    11.87    12.67    13.51    14.37    
 15.32    16.27    17.25    18.24    19.29    20.35    21.42    22.50    23.66    24.82    
 26.01    27.25    28.59    30.00    31.47    32.96    34.58    36.32    38.16    40.04    
 41.98    43.96    45.99    48.08    50.27    52.56    54.84    57.15    59.48    61.85    
 64.32    66.90    69.58    72.36    75.25    78.22    81.19    84.37    87.69    90.97    
 94.27    97.67    101.16   104.69   108.10   111.33   114.33   117.08   119.54   121.74   
 123.65   125.23   126.57   127.48   127.93   127.80   127.08   125.75   123.85   121.31   
 118.25   114.74   111.01   106.94   102.78   98.42    94.07    89.77    85.41    80.69    
 75.07    
67719.35 64737.04 62035.46 60344.74 59316.56 54967.45 47992.38 41798.28 35769.39 29125.25 
 22481.11 15850.37 10857.97 7359.61  3861.26  394.17   311.01   227.85   144.95   87.75    
 46.01    27.62    19.02    13.77    11.36    9.89     8.89     8.17     7.71     7.34     
 7.02     6.70     6.53     6.36     6.07     5.61     5.50     5.51     5.45     5.33     
 5.17     5.08     4.99     4.85     4.66     4.62     4.70     4.69     4.67     4.63     
 4.56     4.49     4.37     4.29     4.18     4.07     4.00     3.92     3.85     3.78     
 3.67     3.58     3.48     3.41     3.33     3.29     3.22     3.13     3.07     3.04     
 2.99     2.94     2.85     2.81     2.79     2.78     2.78     2.78     2.78     2.80     
 2.83     2.85     2.89     2.94     3.02     3.12     3.25     3.40     3.57     3.77     
 3.99     4.24     4.50     4.79     5.12     5.47     5.83     6.24     6.69     7.18     
 7.68     8.23     8.84     9.50     10.20    10.92    11.68    12.50    13.37    14.26    
 15.19    16.18    17.20    18.22    19.29    20.37    21.50    22.60    23.75    24.94    
 26.20    27.55    28.97    30.42    31.90    33.46    35.12    36.87    38.62    40.46    
 42.33    44.23    46.20    48.17    50.17    52.18    54.28    56.39    58.50    60.73    
 63.05    65.43    67.94    70.54    73.27    76.10    78.92    81.90    84.91    88.07    
 91.38    94.66    97.98    101.34   104.55   107.61   110.41   112.89   115.22   117.17   
 118.89   120.36   121.57   122.46   122.87   122.77   122.11   120.84   119.07   116.78   
 114.08   111.08   107.91   104.63   101.28   97.83    94.14    91.39    87.04    82.44    
 75.07    
67719.35 65072.55 62494.14 60696.13 59611.82 58627.64 52906.67 47223.44 41455.37 36011.02 
 28370.92 24267.70 17471.90 13164.07 8810.15  4455.43  1009.16  646.33   322.64   245.64   
 213.20   163.50   126.78   104.99   83.36    69.93    59.43    49.93    46.06    45.55    
 38.11    32.21    27.95    27.14    24.33    21.52    18.45    15.62    13.24    11.61    
 10.54    9.56     8.81     8.17     7.57     7.10     6.77     6.48     6.25     5.98     
 5.76     5.57     5.40     5.17     4.98     4.79     4.64     4.52     4.39     4.26     
 4.12     4.00     3.91     3.81     3.70     3.60     3.52     3.45     3.38     3.32     
 3.25     3.19     3.13     3.08     3.04     3.00     2.96     2.93     2.91     2.90     
 2.89     2.89     2.89     2.96     3.05     3.19     3.35     3.54     3.76     4.00     
 4.26     4.55     4.89     5.26     5.64     6.06     6.53     7.03     7.59     8.21     
 8.89     9.60     10.35    11.12    11.99    12.89    13.80    14.76    15.72    16.69    
 17.75    18.84    19.96    21.08    22.25    23.47    24.72    25.97    27.30    28.69    
 30.11    31.55    33.01    34.51    36.09    37.64    39.23    40.87    42.56    44.26    
 45.96    47.69    49.47    51.27    53.19    55.21    57.27    59.43    61.65    63.93    
 66.30    68.80    71.42    74.08    76.81    79.55    82.39    85.33    88.35    91.35    
 94.31    97.24    100.09   102.76   105.33   107.66   109.76   111.67   113.42   115.00   
 116.43   117.60   118.42   118.83   118.84   118.45   117.66   116.40   114.87   113.02   
 110.96   108.70   106.38   105.12   102.74   99.74    96.61    93.28    89.81    86.21    
 75.07    
67719.35 65510.56 63450.11 61533.53 60120.77 59210.55 58646.69 56292.70 50501.21 45596.50 
 40642.38 36281.48 30585.65 25939.48 21293.31 16657.66 13156.41 9244.75  6514.91  3732.44  
 968.02   556.01   424.68   311.95   249.15   186.65   158.70   127.67   103.73   87.27    
 71.83    62.20    52.89    44.89    38.74    33.86    30.23    27.25    24.62    22.38    
 20.38    18.59    16.62    14.49    12.67    11.84    11.46    11.05    10.63    10.12    
 9.56     8.99     8.27     7.59     7.09     6.77     6.60     6.48     6.34     6.16     
 5.97     5.77     5.56     5.35     5.15     4.95     4.77     4.60     4.44     4.28     
 4.13     3.98     3.84     3.71     3.59     3.47     3.37     3.28     3.19     3.12     
 3.08     3.08     3.09     3.12     3.22     3.37     3.58     3.83     4.12     4.46     
 4.83     5.24     5.69     6.20     6.73     7.29     7.89     8.54     9.24     9.94     
 10.67    11.44    12.26    13.15    14.05    14.99    15.96    16.96    18.01    19.11    
 20.20    21.35    22.55    23.79    25.06    26.36    27.72    29.06    30.45    31.89    
 33.38    34.92    36.52    38.08    39.69    41.34    43.09    44.88    46.69    48.57    
 50.50    52.48    54.51    56.58    58.67    60.83    63.06    65.33    67.57    69.93    
 72.41    74.86    77.32    79.82    82.34    84.88    87.34    89.79    92.14    94.38    
 96.61    98.69    100.62   102.49   104.22   105.87   107.40   108.72   109.91   110.86   
 111.64   112.17   112.47   112.54   112.35   111.88   111.22   110.33   109.31   108.17   
 107.50   106.60   105.56   104.06   102.37   98.81    97.64    95.73    93.24    90.70    
 75.07    
67719.35 66137.07 64707.94 63361.10 62003.58 60829.63 59543.26 58251.61 57293.32 56557.60 
 54382.81 49920.79 45739.72 42874.36 39090.69 35224.13 32221.25 27916.78 23699.06 21310.54 
 18645.40 14834.15 12225.17 9996.38  7771.70  5547.03  3078.13  1280.66  882.86   502.88   
 376.10   272.22   201.43   154.34   125.97   105.72   85.54    73.71    66.71    58.08    
 49.34    43.72    39.52    34.21    31.15    28.09    26.02    24.09    21.50    19.59    
 17.85    16.36    14.82    12.80    11.27    10.57    10.11    9.73     9.35     9.00     
 8.55     8.20     7.86     7.55     7.27     7.00     6.74     6.49     6.26     6.06     
 5.86     5.66     5.47     5.29     5.11     4.93     4.74     4.56     4.38     4.24     
 4.11     4.01     3.93     3.90     3.91     4.06     4.32     4.66     5.02     5.40     
 5.83     6.30     6.79     7.35     7.95     8.58     9.24     9.98     10.76    11.56    
 12.43    13.35    14.30    15.27    16.35    17.49    18.65    19.84    21.04    22.37    
 23.73    25.12    26.52    27.98    29.51    31.08    32.68    34.32    36.05    37.82    
 39.59    41.42    43.30    45.24    47.20    49.15    51.17    53.29    55.39    57.52    
 59.66    61.78    63.88    66.02    68.22    70.39    72.55    74.70    76.84    78.95    
 81.05    83.18    85.24    87.27    89.22    91.11    92.93    94.68    96.35    97.93    
 99.36    100.68   101.90   103.03   104.05   104.92   105.68   106.32   106.82   107.20   
 107.50   107.64   107.70   107.68   107.60   107.46   107.21   106.91   106.99   106.05   
 105.39   104.78   104.28   103.77   102.95   101.60   100.30   99.39    98.18    96.84    
 75.07    
67719.35 66889.16 66162.53 65496.99 64838.43 64108.63 63101.56 61802.48 60639.43 59415.25 
 58104.36 56931.47 55830.93 54714.48 53957.69 52902.70 51764.25 50667.82 49581.61 48365.87 
 46191.87 43494.81 40801.22 38071.80 36069.68 33901.78 31532.88 28871.85 26366.70 24213.87 
 22057.55 19427.81 16640.22 14602.26 12806.28 11167.99 9383.50  7900.71  6396.59  5419.53  
 4362.87  3500.95  2751.28  2002.77  1405.30  960.57   681.06   480.50   351.42   288.04   
 224.67   161.63   132.61   103.49   82.54    70.28    61.40    49.63    42.35    36.84    
 32.39    28.93    25.89    23.75    21.69    19.57    17.52    15.38    13.48    12.38    
 11.92    11.35    10.53    9.67     8.97     8.45     7.94     7.36     6.95     6.47     
 5.91     5.51     5.09     4.67     4.29     3.99     4.01     4.26     4.57     4.90     
 5.28     5.69     6.16     6.65     7.19     7.75     8.36     9.03     9.74     10.47    
 11.26    12.09    13.02    14.00    15.03    16.07    17.16    18.32    19.57    20.85    
 22.17    23.56    25.03    26.53    28.07    29.64    31.30    32.92    34.62    36.37    
 38.21    40.12    42.08    43.99    45.92    47.89    49.92    51.98    54.04    56.12    
 58.20    60.26    62.36    64.40    66.43    68.46    70.51    72.53    74.47    76.42    
 78.38    80.26    82.09    83.85    85.53    87.15    88.73    90.20    91.65    93.14    
 94.49    95.74    96.91    97.96    99.03    100.12   101.06   101.88   102.68   103.41   
 104.10   104.72   105.26   105.75   106.18   106.60   106.95   108.45   108.69   108.86   
 108.93   108.88   108.74   108.48   107.99   107.14   106.36   105.40   104.31   103.25   
 75.07    
67719.35 67739.98 67797.85 67967.30 68112.10 68197.12 67962.79 67414.22 66946.13 66421.35 
 65951.05 65340.51 64702.22 64083.22 63405.55 62834.97 62201.76 61670.45 60986.99 60265.57 
 59542.69 58866.08 58028.31 57078.07 56081.48 55221.64 54100.85 53200.22 52015.83 50806.98 
 49557.50 48295.21 46895.99 45409.94 44027.20 42587.14 41025.67 39333.48 37733.53 36164.92 
 34547.31 32843.54 31239.53 29670.97 28050.68 26455.28 24940.88 23427.60 22010.70 20646.60 
 19395.52 18086.45 16768.71 15500.26 14284.41 13041.02 11988.66 11022.25 10058.84 9075.36  
 8176.75  7333.93  6583.19  5883.93  5286.27  4695.83  4176.20  3681.73  3226.69  2818.74  
 2411.58  2072.48  1778.03  1506.47  1268.51  1040.93  844.87   675.05   538.54   426.91   
 331.83   261.49   191.39   141.59   106.45   77.51    44.88    23.16    9.73     5.75     
 5.14     4.88     4.29     3.84     3.65     3.36     2.48     2.47     2.51     2.59     
 2.68     2.79     2.89     3.02     3.15     3.30     3.46     3.64     3.83     4.04     
 4.26     4.50     4.76     5.04     5.33     5.63     5.96     6.30     6.66     7.04     
 7.44     7.84     8.26     8.70     9.19     9.69     10.19    10.71    11.23    11.78    
 12.35    12.93    13.53    14.14    14.77    15.42    16.10    16.82    17.54    18.28    
 19.05    19.85    20.66    21.52    22.41    23.38    24.34    25.34    26.37    27.48    
 28.63    29.84    31.07    32.38    33.78    35.26    36.89    38.68    40.57    42.62    
 44.74    46.97    49.26    51.66    54.06    56.55    59.09    62.78    64.15    67.01    
 69.39    72.61    75.77    78.12    80.37    82.48    84.42    86.04    87.41    88.59    
 75.07    
67719.35 68558.14 69460.91 70448.61 71432.95 72406.56 73081.91 73517.62 73910.90 74283.73 
 74636.32 75057.00 75498.35 75763.09 75821.41 75677.12 75459.51 75329.02 75127.19 74752.10 
 74054.28 73281.25 72367.03 71114.17 69802.22 68550.09 67318.54 65962.18 64545.04 63131.33 
 61645.43 60255.16 58709.23 57013.30 55267.88 53694.80 51966.42 50285.03 48632.64 46963.93 
 45431.45 43800.00 42159.56 40611.37 39124.26 37565.37 35965.70 34373.73 32870.24 31492.08 
 30050.43 28512.13 27097.26 25791.93 24455.51 23066.60 21761.56 20529.56 19410.67 18328.86 
 17118.70 16011.09 14997.51 14041.01 13016.84 12092.37 11248.80 10405.95 9517.30  8651.90  
 7824.17  7103.09  6383.17  5730.81  5124.27  4619.87  4124.97  3673.29  3234.21  2811.94  
 2475.33  2167.94  1890.53  1636.87  1442.45  1275.07  1123.76  972.60   859.26   764.09   
 682.15   610.05   544.65   488.30   441.37   401.20   365.21   333.47   306.64   282.78   
 261.23   243.86   227.93   214.17   200.86   188.87   178.97   170.30   162.64   155.38   
 149.05   142.99   137.33   131.41   125.12   118.82   113.17   107.93   102.93   98.52    
 94.51    90.32    86.20    82.06    78.00    73.32    68.38    62.42    54.39    45.26    
 36.36    29.47    24.08    20.36    16.08    12.21    10.55    10.76    11.31    11.91    
 12.53    13.13    13.75    14.36    14.99    15.63    16.25    16.88    17.52    18.18    
 18.84    19.52    20.21    20.98    21.81    22.68    23.66    24.78    26.00    27.42    
 28.95    30.77    32.77    34.98    37.36    39.85    42.47    45.25    48.13    51.41    
 54.25    57.51    60.59    63.69    68.11    71.25    74.13    76.84    79.33    81.77    
 75.07    
67719.35 69332.54 70971.47 72749.82 74433.01 76216.02 77954.48 79654.00 80819.49 81847.45 
 82490.59 82485.78 81673.20 80500.77 79477.19 78472.39 77358.55 76192.18 74997.62 73793.06 
 72467.66 71053.95 69652.61 68279.22 66889.06 65438.56 63980.02 62519.58 60902.04 59240.53 
 57591.35 55924.82 54181.72 52423.64 50765.49 49058.17 47268.46 45647.94 44071.35 42475.52 
 40947.68 39401.54 38012.86 36701.22 35450.82 34285.65 33197.88 32201.84 31147.16 29888.39 
 28686.20 27516.63 26387.35 25270.70 24154.06 23036.96 21877.03 20707.75 19612.36 18567.61 
 17536.37 16581.06 15743.54 14890.82 14057.23 13203.44 12349.63 11457.30 10581.48 9725.94  
 8933.12  8142.07  7329.25  6600.20  5867.47  5132.80  4373.13  3793.66  3294.41  2864.08  
 2433.72  2002.14  1708.41  1485.55  1281.89  1129.26  994.48   886.01   794.44   715.75   
 654.49   595.72   535.80   486.17   446.81   416.26   389.82   368.87   349.97   334.07   
 319.63   307.00   295.18   284.82   275.88   268.47   261.07   253.95   247.96   241.97   
 235.99   231.07   226.33   221.80   217.41   213.16   208.90   205.21   201.61   197.52   
 193.82   190.26   186.56   182.95   179.84   176.61   172.89   169.50   166.02   162.42   
 158.13   152.39   145.78   139.16   133.03   126.50   119.56   113.14   107.09   100.66   
 93.01    85.30    78.09    72.07    66.98    61.71    58.08    45.47    25.76    16.58    
 13.23    12.67    13.38    14.12    14.88    15.66    16.47    17.31    18.23    19.28    
 20.41    21.67    23.10    24.75    26.56    28.55    30.75    33.20    35.87    38.82    
 42.00    45.52    49.11    52.76    56.61    60.46    64.53    69.32    73.02    76.72    
 75.07    
67719.35 70014.93 72354.84 74683.07 77256.32 79820.42 81838.13 83469.45 83765.35 82897.23 
 82018.61 81067.74 79951.62 78986.74 77790.09 76559.46 75127.52 73770.37 72381.90 70359.36 
 68078.09 65774.44 63494.69 61279.38 59217.24 57296.93 55578.65 53922.68 52523.25 51451.17 
 50518.62 49607.43 48660.31 47668.71 46748.99 45817.84 44854.45 43722.06 42443.16 41151.67 
 39827.99 38556.13 37280.75 35921.08 34508.47 33079.34 31561.72 30175.92 28907.70 27680.58 
 26485.15 25318.78 24349.19 23393.54 22405.89 21353.74 20280.95 19216.02 18163.20 17130.57 
 16033.80 14995.64 13967.13 12910.63 11867.17 10823.84 9780.51  8792.86  7765.81  6851.61  
 6062.54  5440.64  4912.73  4382.03  3852.53  3414.52  2910.68  2551.04  2236.65  1969.86  
 1707.14  1499.01  1320.23  1186.64  1053.39  920.14   817.14   732.61   658.41   604.06   
 555.05   506.74   461.69   424.50   393.44   367.13   348.15   333.87   322.27   311.35   
 301.57   293.43   286.26   280.64   274.67   269.67   264.91   260.01   255.41   251.38   
 247.01   243.38   239.67   235.61   231.50   227.78   224.33   220.81   217.10   213.87   
 210.60   207.06   203.40   198.85   193.64   188.82   183.96   179.50   174.83   170.49   
 166.07   162.62   159.96   157.39   154.79   151.52   148.91   146.35   143.92   141.40   
 138.84   135.93   133.23   130.54   127.84   124.12   116.58   111.78   107.53   101.84   
 96.50    85.04    78.93    77.00    74.21    63.61    36.31    23.39    17.51    15.99    
 15.36    16.31    17.69    19.14    20.72    22.36    24.12    26.11    28.32    30.90    
 33.73    36.89    40.34    43.89    47.70    52.22    56.81    61.36    66.24    71.64    
 75.07    
67719.35 70532.98 73276.54 76203.19 79352.23 81990.36 83791.01 83655.59 82765.61 81852.51 
 80880.08 79985.72 78894.32 77756.59 76420.92 74613.38 72224.86 69515.69 66796.30 64219.10 
 61943.79 60034.46 58202.39 56831.71 55824.77 54712.65 53519.98 52295.00 51050.49 49845.37 
 48586.58 47224.79 45552.30 43724.89 42041.40 40313.43 38552.59 36725.61 35067.74 33475.30 
 31993.86 30736.78 29549.75 28479.04 27399.91 26286.35 25323.11 24359.87 23397.78 22532.01 
 21636.23 20711.30 19792.70 18828.46 17791.71 16802.93 15849.09 14889.80 13845.11 12834.23 
 11932.66 10995.94 9944.82  9003.36  8254.78  7514.64  6919.15  6344.77  5804.61  5305.35  
 4792.83  4362.36  3895.80  3468.48  3127.56  2842.88  2558.20  2273.61  1998.45  1793.40  
 1590.71  1422.12  1261.45  1127.48  1005.51  895.63   805.75   727.83   661.43   610.47   
 562.79   517.85   472.36   435.29   403.60   376.34   356.63   339.70   327.72   318.70   
 310.39   303.23   297.05   291.96   287.05   282.63   278.43   274.68   271.70   267.64   
 264.02   261.00   257.60   254.37   251.26   247.48   241.97   236.47   231.34   226.45   
 221.07   216.54   212.69   208.97   204.99   201.11   197.68   194.28   190.21   185.77   
 181.53   177.92   173.69   169.96   166.45   163.07   159.71   156.37   153.35   149.69   
 145.39   141.44   137.53   132.37   130.85   130.13   129.84   128.57   128.55   125.83   
 122.15   115.45   110.24   107.29   103.63   97.19    86.41    83.70    79.62    72.61    
 34.41    20.16    17.85    17.08    18.16    19.94    21.81    23.78    25.78    27.94    
 30.29    32.86    35.78    39.08    42.86    46.97    51.66    56.85    62.36    68.27    
 75.07    
67719.35 70851.25 73927.73 77362.86 80373.76 82744.29 82695.73 81715.30 80833.70 79877.40 
 78980.20 77888.18 76682.82 75009.88 72511.29 69515.38 66583.61 64022.61 61839.64 59755.86 
 58047.54 56904.59 55822.46 54720.89 53487.53 52169.32 50870.40 49467.69 47897.16 45863.03 
 43868.21 41937.56 40051.34 38229.29 36483.55 34790.29 33161.29 31608.61 30084.62 28544.76 
 27259.57 26203.91 25317.74 24584.56 23896.58 23212.98 22505.50 21722.02 20925.96 20089.90 
 19223.97 18263.89 17342.70 16453.77 15569.12 14525.09 13623.15 12710.50 11717.32 10723.50 
 9729.67  9017.82  8275.05  7671.23  7085.31  6527.42  6034.83  5546.06  5074.70  4636.63  
 4159.21  3797.56  3479.76  3165.45  2884.27  2619.16  2329.16  2102.36  1897.14  1694.93  
 1532.37  1380.65  1242.76  1121.98  1001.32  902.67   816.32   737.38   676.35   626.10   
 577.46   529.31   482.47   442.13   410.95   382.35   358.04   340.51   327.69   316.84   
 308.30   300.87   294.42   288.88   283.00   278.08   273.52   269.18   265.35   261.80   
 258.07   254.12   250.43   246.35   242.92   239.20   235.51   231.88   228.32   224.46   
 220.60   217.04   213.66   210.11   206.68   203.22   199.58   195.98   192.47   188.88   
 185.45   181.72   178.12   174.66   171.15   164.85   157.22   154.33   152.44   150.64   
 148.45   145.78   143.02   139.90   136.92   133.89   131.30   128.23   125.16   122.86   
 120.39   117.92   115.34   110.25   105.63   103.32   101.71   99.16    88.26    81.71    
 80.39    63.00    23.81    19.94    20.37    21.89    24.16    26.50    28.82    30.07    
 32.03    34.38    36.93    39.73    43.04    46.90    51.32    56.43    61.85    67.61    
 75.07    
67719.35 70959.64 74121.05 77674.91 80787.22 82850.90 82362.32 81396.61 80386.21 79396.82 
 78393.09 77164.15 75708.72 73560.88 70679.21 67601.55 64755.56 62333.60 60148.97 58207.41 
 56998.51 55936.81 54869.57 53658.11 52354.44 50985.86 49505.37 47967.38 45952.56 43930.57 
 41969.88 40049.02 38259.80 36498.69 34761.85 33061.34 31407.98 29709.59 28237.26 27058.08 
 26130.97 25350.18 24690.73 24031.91 23431.08 22724.55 21977.60 21185.99 20366.58 19478.99 
 18584.00 17677.20 16758.70 15805.41 14704.13 13743.10 12841.81 11799.56 10738.00 9856.78  
 9162.10  8433.94  7801.05  7219.07  6683.36  6200.28  5717.66  5241.76  4825.48  4334.15  
 3942.63  3607.10  3304.51  3027.80  2758.94  2490.08  2221.81  2009.41  1805.24  1637.67  
 1479.50  1333.57  1199.69  1073.09  959.42   864.42   778.18   704.43   645.99   593.84   
 545.22   497.43   450.24   410.66   378.97   351.12   328.19   311.31   298.82   289.31   
 281.82   275.33   269.41   264.11   259.37   255.12   251.52   247.98   245.03   241.49   
 237.96   234.43   231.61   228.89   226.30   223.54   221.06   218.55   216.03   213.43   
 210.22   206.85   203.97   200.97   197.87   194.67   191.50   188.46   185.44   182.31   
 179.10   175.97   172.70   169.38   166.22   162.97   157.39   149.33   146.66   144.51   
 142.77   141.21   139.51   137.21   134.67   132.18   129.89   127.69   125.39   123.20   
 120.66   118.34   116.43   114.70   112.98   110.89   109.85   107.78   100.14   86.62    
 84.40    79.03    39.60    21.68    22.91    23.87    25.97    28.65    31.39    34.08    
 36.58    39.07    41.49    43.96    46.75    50.06    54.13    58.96    64.33    69.94    
 75.07    
67719.35 70885.31 74096.12 77496.58 80255.58 81876.95 81278.77 80316.33 79307.28 78431.73 
 77549.52 76375.67 74962.82 73074.93 70378.80 67321.36 64395.42 61930.81 59821.09 57769.87 
 56274.44 55213.46 54203.60 53044.38 51809.02 50612.46 49333.40 47958.83 46335.85 44352.23 
 42428.10 40626.65 38814.51 37061.37 35379.66 33777.40 32215.22 30669.13 29147.03 27754.75 
 26568.42 25565.19 24697.56 23984.78 23297.04 22601.62 21870.65 21088.14 20285.51 19443.27 
 18544.01 17614.34 16711.92 15849.15 14947.36 13919.15 13027.74 12129.63 11111.49 10092.38 
 9275.79  8576.64  7873.24  7291.90  6738.48  6223.64  5752.28  5270.12  4827.01  4373.05  
 3940.18  3594.63  3281.41  2979.53  2716.47  2450.20  2190.27  1981.52  1776.42  1603.71  
 1448.46  1306.93  1187.11  1064.68  942.23   848.51   765.39   695.22   639.74   589.98   
 543.75   492.14   448.39   412.42   382.79   356.25   336.96   322.39   311.77   303.07   
 295.34   288.31   282.53   277.49   272.59   268.25   263.97   260.66   257.84   255.10   
 252.58   249.55   246.95   244.47   241.66   238.66   235.80   232.95   229.61   226.01   
 222.54   219.63   216.51   213.43   210.35   207.05   203.89   200.63   197.30   193.88   
 190.41   186.81   183.04   179.35   175.83   168.15   161.25   158.14   155.53   153.10   
 150.59   148.16   145.73   143.04   140.61   137.97   135.32   132.63   129.95   126.69   
 123.43   120.95   118.36   112.65   109.31   107.91   106.87   104.21   95.30    92.57    
 86.34    47.28    26.98    26.94    27.63    29.46    32.16    35.06    37.86    40.49    
 43.01    45.49    47.90    50.24    52.79    55.71    59.18    63.29    67.72    72.45    
 75.07    
67719.35 70526.24 73298.50 76454.08 79250.03 81407.99 81628.84 80835.33 79918.59 78940.17 
 77922.47 76895.71 75756.53 74367.33 72681.36 70387.72 67678.54 64903.31 62168.61 59854.28 
 57891.64 56056.71 54442.82 53339.81 52388.79 51374.45 50300.93 49188.48 48091.38 46970.21 
 45798.23 44315.47 42652.90 41034.50 39513.40 37936.96 36312.70 34619.86 33084.44 31625.25 
 30319.81 29112.65 28020.41 26986.92 25950.74 25028.56 24142.50 23256.30 22356.73 21455.91 
 20549.55 19644.01 18676.89 17698.93 16719.95 15746.47 14840.75 13919.56 12824.70 11851.58 
 11003.18 10035.80 9038.54  8221.04  7542.28  6880.03  6339.45  5809.83  5338.82  4853.62  
 4377.11  3965.03  3501.29  3159.40  2858.68  2584.31  2310.00  2040.87  1819.02  1631.28  
 1454.38  1299.36  1166.84  1043.88  930.72   829.73   746.58   675.83   620.88   572.30   
 527.05   478.34   436.81   402.21   373.45   349.87   331.27   318.12   307.70   298.17   
 290.53   283.93   277.84   272.58   267.75   263.77   259.46   256.17   252.80   249.44   
 246.42   243.66   241.05   237.14   233.23   229.31   224.90   220.18   216.09   211.11   
 206.70   203.13   199.69   196.28   193.12   189.88   187.33   184.07   180.50   176.68   
 173.19   169.32   165.88   162.66   159.51   156.49   153.49   150.91   148.63   145.66   
 141.41   137.36   131.51   129.80   128.48   128.11   128.12   129.59   129.58   127.28   
 123.34   117.66   114.66   112.11   109.17   106.30   101.11   98.09    88.73    48.97    
 33.27    32.66    32.79    33.72    36.21    39.10    41.96    44.76    47.39    49.96    
 52.41    54.82    57.13    59.59    62.13    64.93    68.11    71.41    74.93    78.49    
 75.07    
67719.35 69956.52 72325.61 74935.96 77393.17 79405.72 80697.44 80516.29 79620.87 78664.72 
 77731.29 76542.56 75448.44 74211.82 72931.42 71518.93 69973.99 68149.35 66209.81 63959.73 
 61613.86 59340.67 57102.99 55136.64 53315.89 51593.16 50014.56 48766.04 47775.60 46899.86 
 46083.23 45379.35 44560.41 43837.20 43002.55 42236.65 41331.88 40154.77 38955.57 37772.29 
 36616.24 35441.11 34215.51 32931.39 31646.75 30284.68 28991.65 27745.67 26620.19 25588.65 
 24529.69 23541.11 22646.04 21724.79 20733.63 19695.40 18683.85 17660.92 16676.62 15661.65 
 14623.18 13610.55 12610.83 11580.29 10609.56 9639.39  8708.03  7779.37  6938.66  6119.10  
 5464.66  4925.04  4422.25  3878.39  3406.24  2954.79  2560.01  2255.60  1990.44  1757.42  
 1536.05  1361.90  1205.02  1080.23  955.69   855.47   765.58   686.77   627.01   576.14   
 526.06   473.95   429.74   394.51   366.58   343.85   327.21   313.12   301.63   290.51   
 280.99   272.67   265.92   260.29   254.41   249.16   244.48   240.26   235.87   231.99   
 227.94   224.23   220.10   216.30   212.85   209.52   206.37   203.35   200.20   197.09   
 194.27   191.59   188.01   183.08   178.73   174.13   169.44   164.80   160.29   156.11   
 152.14   149.36   147.02   144.71   142.62   140.49   138.40   136.32   134.35   132.39   
 130.31   128.31   126.10   123.88   121.67   116.38   112.74   109.71   104.66   98.88    
 93.10    88.43    88.31    86.94    61.70    41.46    39.14    37.85    36.79    36.63    
 38.61    41.25    43.92    46.49    49.03    51.41    53.78    56.12    58.36    60.52    
 62.58    64.75    66.98    69.30    71.82    74.46    77.09    79.80    82.44    85.08    
 75.07    
67719.35 69271.71 70896.01 72769.78 74662.24 76510.36 77869.13 79003.12 79628.37 79358.57 
 78512.86 77300.28 76224.89 75069.58 73966.60 72748.05 71483.18 70189.91 68771.62 67463.98 
 66139.99 64697.02 63253.59 61767.73 60260.98 58605.39 57011.32 55433.20 53904.50 52344.63 
 50743.13 49141.17 47543.65 46003.25 44421.23 42893.14 41385.12 39955.29 38651.87 37341.93 
 36124.75 34972.19 33840.13 32766.31 31754.86 30831.67 29908.52 28986.85 27862.68 26800.22 
 25768.51 24744.28 23705.27 22666.01 21602.69 20537.73 19465.56 18444.64 17450.24 16463.94 
 15539.33 14735.27 13907.49 13139.97 12347.27 11576.93 10769.56 9992.72  9233.51  8484.73  
 7730.64  7020.46  6311.32  5654.05  4981.73  4287.94  3665.85  3195.59  2803.11  2410.64  
 2019.22  1720.04  1487.51  1286.15  1133.12  998.71   888.55   798.91   720.76   659.24   
 601.26   545.04   496.39   455.01   418.98   390.36   364.80   343.50   325.16   309.95   
 296.87   284.36   273.41   263.85   255.35   247.40   240.12   233.24   226.38   221.20   
 216.23   211.39   206.37   201.93   197.93   194.10   190.08   186.50   182.68   179.13   
 175.82   172.81   169.59   166.68   163.53   160.46   156.91   153.10   147.72   141.63   
 135.20   129.29   123.16   117.55   112.53   107.82   103.32   99.22    95.00    90.45    
 86.01    81.06    75.09    71.76    68.22    55.28    33.84    28.16    28.40    30.40    
 32.56    34.71    36.92    39.15    41.38    43.63    45.84    48.02    50.20    52.33    
 54.42    56.43    58.40    60.37    62.27    64.17    66.02    67.96    69.86    71.80    
 73.67    75.66    77.71    79.84    81.98    84.16    86.35    88.44    90.53    92.60    
 75.07    
67719.35 68508.43 69411.67 70373.10 71354.06 72302.03 73153.27 73744.43 74131.07 74542.50 
 74687.23 74837.22 74781.23 74761.68 74563.03 73962.03 73226.30 72346.65 71408.41 70301.92 
 69056.59 67813.83 66410.88 65292.69 64123.49 62846.98 61615.42 60357.11 58992.31 57515.96 
 56015.65 54560.87 53034.07 51487.55 50028.61 48433.03 46771.43 45197.13 43776.32 42371.83 
 40887.48 39459.52 38070.22 36673.65 35242.69 33853.39 32464.44 31029.70 29674.76 28305.17 
 26965.85 25592.63 24291.48 23002.47 21808.88 20631.41 19526.56 18456.67 17467.21 16405.88 
 15359.24 14376.51 13467.78 12559.77 11659.39 10852.32 10046.10 9230.22  8410.00  7622.63  
 6894.73  6243.94  5629.49  5023.67  4494.42  4043.19  3602.74  3193.69  2803.10  2455.60  
 2171.91  1918.53  1687.07  1485.75  1320.01  1165.45  1036.41  907.61   807.57   721.24   
 648.52   577.79   514.49   461.00   415.37   375.46   342.31   313.46   289.56   268.12   
 248.70   231.05   215.58   201.09   188.64   176.83   167.19   158.53   151.29   144.61   
 138.35   131.92   126.08   120.19   114.30   109.50   105.27   101.00   96.67    92.42    
 88.79    85.35    81.31    77.41    73.36    68.54    62.14    53.58    45.19    37.61    
 31.61    26.48    22.82    22.05    23.18    24.71    26.24    27.82    29.42    31.06    
 32.75    34.48    36.21    37.95    39.73    41.52    43.31    45.10    46.91    48.70    
 50.50    52.24    53.99    55.78    57.57    59.29    61.00    62.75    64.48    66.19    
 67.88    69.62    71.31    73.05    74.79    76.53    78.31    80.07    81.77    83.49    
 85.20    87.00    88.76    90.46    92.14    93.85    95.49    97.12    98.66    100.21   
 75.07    
67719.35 67711.14 67846.98 68004.38 68134.00 67943.77 67486.41 67033.68 66529.16 66020.01 
 65307.08 64619.76 63984.69 63330.22 62639.55 62016.49 61407.79 60717.77 60018.73 59271.68 
 58488.11 57608.24 56679.29 55617.92 54571.06 53436.41 52340.81 51272.53 50149.76 48890.58 
 47438.08 46075.07 44597.34 43086.27 41746.67 40221.15 38497.64 36935.98 35292.52 33643.74 
 31931.05 30329.33 28756.94 27136.96 25516.41 23991.76 22540.15 21193.27 19855.53 18517.87 
 17239.70 15986.60 14717.84 13540.71 12412.63 11450.59 10490.48 9530.37  8554.27  7676.08  
 6908.01  6214.75  5543.82  4954.50  4408.28  3878.37  3398.85  2934.51  2542.45  2182.41  
 1875.40  1588.01  1326.67  1123.18  920.43   717.67   565.73   448.18   344.72   262.26   
 189.64   137.20   106.34   75.70    49.26    25.59    12.46    7.66     6.70     6.59     
 6.59     6.77     7.00     7.27     7.45     6.91     7.11     7.50     7.96     8.45     
 9.00     9.60     10.24    10.93    11.68    12.47    13.30    14.15    15.04    16.01    
 17.01    18.03    19.13    20.26    21.48    22.71    23.99    25.27    26.66    28.12    
 29.63    31.10    32.61    34.21    35.88    37.55    39.24    41.01    42.79    44.60    
 46.40    48.16    49.93    51.70    53.55    55.41    57.29    59.04    60.80    62.51    
 64.20    65.83    67.49    69.15    70.76    72.32    73.80    75.23    76.59    77.95    
 79.31    80.56    81.74    82.83    83.81    84.74    85.70    86.66    87.52    88.33    
 89.08    89.81    90.50    91.14    91.72    92.28    92.88    93.43    93.87    94.25    
 94.54    94.75    94.86    94.80    94.54    94.00    93.26    92.33    91.44    90.45    
 75.07    
67719.35 66845.99 66157.63 65497.81 64884.17 64058.11 63258.57 62299.07 61388.70 60282.97 
 59189.52 58124.20 57061.51 56299.58 54558.80 52023.76 49125.25 46412.17 43795.85 42027.57 
 39853.82 37340.44 34578.39 31881.55 29770.67 27597.97 24797.74 22000.00 19471.72 17456.34 
 15773.74 13879.06 11770.70 9855.06  8396.21  7344.85  6089.22  5032.03  4087.58  3276.83  
 2466.07  1657.73  1179.97  846.69   601.59   429.27   333.40   276.68   219.96   163.49   
 134.96   112.47   91.99    80.40    70.21    58.28    49.45    42.43    37.16    31.91    
 28.15    25.86    23.85    21.95    19.92    17.89    15.12    11.72    10.36    9.94     
 9.59     9.18     8.69     8.10     7.64     7.28     6.96     6.57     6.19     5.81     
 5.48     5.13     4.80     4.52     4.27     4.30     4.55     4.89     5.25     5.65     
 6.12     6.63     7.15     7.72     8.34     8.99     9.69     10.43    11.21    12.03    
 12.89    13.79    14.79    15.82    16.88    17.95    19.06    20.26    21.51    22.81    
 24.12    25.50    26.97    28.46    30.01    31.61    33.24    34.85    36.53    38.28    
 40.05    41.93    43.84    45.71    47.60    49.51    51.50    53.51    55.52    57.51    
 59.51    61.52    63.54    65.53    67.49    69.43    71.40    73.32    75.19    76.98    
 78.77    80.49    82.17    83.77    85.34    86.87    88.34    89.78    91.12    92.38    
 93.64    94.78    95.81    96.73    97.62    98.41    99.15    99.75    100.30   100.73   
 101.06   101.29   101.47   101.62   101.76   101.78   101.78   101.79   101.57   101.22   
 100.71   100.08   99.28    98.22    96.86    95.10    93.06    90.91    88.74    86.56    
 75.07    
67719.35 66094.37 64678.27 63686.54 63004.89 62452.58 61470.79 60222.71 56932.31 52207.86 
 48273.80 44831.20 40622.67 36984.24 33110.94 28406.76 24569.06 22254.32 18117.04 14374.19 
 12394.87 9781.92  7161.28  5107.94  2376.96  1109.11  774.87   450.26   332.76   252.07   
 196.78   149.90   129.41   109.24   89.06    80.87    71.77    62.55    54.21    48.34    
 42.96    38.26    34.65    31.82    29.12    26.99    24.89    22.62    20.40    18.36    
 16.51    14.45    11.73    10.00    9.11     8.68     8.38     8.13     7.86     7.60     
 7.35     7.10     6.88     6.66     6.45     6.26     6.07     5.88     5.71     5.54     
 5.38     5.22     5.07     4.90     4.74     4.58     4.45     4.32     4.21     4.13     
 4.07     4.05     4.05     4.14     4.35     4.64     5.00     5.39     5.81     6.27     
 6.76     7.27     7.86     8.52     9.21     9.94     10.75    11.60    12.47    13.40    
 14.37    15.39    16.50    17.63    18.85    20.13    21.43    22.77    24.16    25.64    
 27.15    28.68    30.25    31.85    33.57    35.30    37.09    38.85    40.70    42.64    
 44.62    46.59    48.58    50.60    52.73    54.85    56.98    59.16    61.40    63.70    
 65.98    68.26    70.53    72.78    75.06    77.37    79.77    82.14    84.48    86.77    
 89.03    91.21    93.36    95.52    97.66    99.73    101.73   103.60   105.29   106.96   
 108.57   110.04   111.37   112.57   113.61   114.42   115.06   115.51   115.78   115.87   
 115.92   115.74   115.39   114.86   114.21   113.43   112.84   112.07   110.90   109.56   
 108.06   106.34   104.53   102.39   99.93    96.98    93.88    90.62    87.30    83.87    
 75.07    
67719.35 65446.81 63526.24 62371.84 61616.90 61065.01 56971.36 50813.72 46733.13 40730.61 
 36022.13 29862.40 25506.21 21139.07 15538.55 12195.77 8290.71  5777.78  3264.85  767.99   
 434.29   312.38   253.38   194.58   159.16   131.63   106.66   86.08    69.17    58.54    
 49.40    41.09    34.89    29.85    26.02    23.40    21.50    19.93    18.56    17.28    
 16.22    15.17    13.40    11.35    10.10    9.42     9.01     8.72     8.45     8.16     
 7.79     7.38     6.99     6.67     6.43     6.27     6.14     6.02     5.89     5.74     
 5.58     5.42     5.26     5.10     4.96     4.82     4.68     4.55     4.41     4.28     
 4.16     4.04     3.94     3.86     3.76     3.70     3.62     3.57     3.55     3.55     
 3.55     3.59     3.66     3.78     3.93     4.15     4.40     4.68     4.99     5.36     
 5.76     6.21     6.70     7.25     7.83     8.47     9.13     9.84     10.61    11.44    
 12.28    13.15    14.08    15.10    16.15    17.25    18.34    19.50    20.71    21.98    
 23.26    24.58    25.98    27.40    28.89    30.42    31.94    33.47    35.02    36.64    
 38.32    40.05    41.83    43.59    45.38    47.24    49.22    51.22    53.26    55.34    
 57.50    59.69    62.00    64.35    66.74    69.20    71.79    74.40    77.00    79.73    
 82.56    85.40    88.24    91.06    93.87    96.69    99.38    102.06   104.58   107.02   
 109.39   111.58   113.66   115.65   117.47   119.16   120.61   121.73   122.73   123.46   
 123.90   124.12   123.95   123.42   122.65   121.53   120.11   118.48   116.67   115.20   
 113.38   110.89   108.01   104.86   101.47   97.65    93.62    89.47    85.25    80.93    
 75.07    
67719.35 64973.09 62833.37 61607.13 60888.22 55904.34 49782.39 44107.21 38441.76 31229.42 
 26135.23 19558.36 14376.01 9975.82  5584.01  1192.20  714.54   276.71   222.52   188.82   
 141.71   113.80   86.11    77.93    68.55    57.85    49.28    42.57    40.27    36.43    
 32.27    28.58    27.09    25.31    22.77    20.51    19.40    17.70    15.75    14.38    
 13.98    13.51    12.77    12.19    11.63    10.74    9.92     9.26     8.58     7.89     
 7.20     6.47     5.80     5.41     5.26     5.18     5.08     4.92     4.77     4.64     
 4.48     4.32     4.19     4.06     3.93     3.82     3.72     3.63     3.55     3.48     
 3.43     3.38     3.34     3.31     3.28     3.27     3.26     3.28     3.29     3.31     
 3.33     3.35     3.41     3.52     3.66     3.82     4.01     4.20     4.42     4.68     
 4.96     5.27     5.60     5.99     6.42     6.90     7.39     7.94     8.56     9.24     
 9.95     10.70    11.51    12.39    13.30    14.24    15.23    16.26    17.35    18.47    
 19.66    20.85    22.10    23.38    24.72    26.09    27.52    28.98    30.49    32.06    
 33.64    35.28    36.99    38.74    40.49    42.26    44.13    46.01    47.89    49.81    
 51.72    53.71    55.77    57.88    60.05    62.31    64.67    67.19    69.80    72.48    
 75.23    78.04    80.95    83.94    86.97    90.10    93.29    96.47    99.60    102.76   
 105.92   108.84   111.61   114.18   116.53   118.71   120.76   122.57   124.19   125.58   
 126.78   127.60   128.09   128.16   127.76   126.90   125.60   123.76   121.55   119.04   
 116.14   113.05   109.47   105.62   102.48   98.12    93.47    88.42    83.93    78.78    
 75.07    
67719.35 64644.88 62233.11 60828.59 59682.26 52886.05 46842.95 40018.68 33130.77 26934.81 
 20738.86 14549.14 9125.95  4937.55  783.80   483.77   186.16   144.23   96.03    60.40    
 37.57    26.40    19.31    15.17    12.70    10.98    9.83     9.09     8.62     8.23     
 7.93     7.81     7.72     7.58     7.03     6.13     5.63     5.35     5.13     4.95     
 4.85     4.75     4.58     4.40     4.27     4.17     4.09     3.97     3.89     3.83     
 3.76     3.70     3.60     3.50     3.45     3.41     3.36     3.33     3.30     3.25     
 3.23     3.19     3.13     3.10     3.07     3.05     3.02     3.00     2.99     2.99     
 2.99     2.99     2.98     2.98     2.98     2.98     2.99     3.00     3.02     3.04     
 3.09     3.14     3.20     3.29     3.40     3.52     3.66     3.80     3.98     4.17     
 4.39     4.63     4.90     5.21     5.54     5.88     6.25     6.68     7.17     7.69     
 8.24     8.81     9.43     10.10    10.85    11.63    12.42    13.27    14.15    15.10    
 16.10    17.10    18.14    19.21    20.33    21.48    22.65    23.81    25.04    26.31    
 27.68    29.14    30.65    32.17    33.77    35.44    37.20    39.00    40.85    42.78    
 44.78    46.83    48.93    51.07    53.24    55.47    57.77    60.11    62.45    64.92    
 67.52    70.17    72.96    75.86    78.88    81.99    85.11    88.39    91.64    94.93    
 98.46    101.92   105.37   108.84   112.08   115.18   117.98   120.48   122.79   124.74   
 126.48   128.00   129.17   129.91   130.15   129.84   129.00   127.49   125.46   122.90   
 119.82   116.35   112.53   108.25   103.79   99.02    94.08    89.05    83.87    78.67    
 75.07    
67719.35 64577.53 62089.23 60662.52 59211.16 51776.25 45817.18 38960.03 31133.97 25541.59 
 17845.37 12676.87 7492.79  2308.21  1703.53  1147.72  591.92   36.11    17.41    14.28    
 12.45    11.21    9.93     9.07     8.37     7.54     6.91     6.38     5.91     5.50     
 5.24     5.00     4.83     4.67     4.54     4.41     4.33     4.32     4.42     4.48     
 4.49     4.55     4.58     4.58     4.48     4.38     4.29     4.19     4.14     4.09     
 3.96     3.89     3.79     3.75     3.72     3.66     3.60     3.56     3.53     3.49     
 3.44     3.41     3.40     3.36     3.30     3.27     3.26     3.25     3.23     3.20     
 3.18     3.15     3.13     3.13     3.13     3.14     3.14     3.14     3.14     3.15     
 3.19     3.24     3.31     3.38     3.47     3.57     3.67     3.81     3.96     4.12     
 4.32     4.54     4.79     5.06     5.36     5.68     6.06     6.47     6.91     7.36     
 7.86     8.40     9.00     9.63     10.33    11.08    11.87    12.67    13.51    14.37    
 15.32    16.27    17.25    18.24    19.29    20.35    21.42    22.50    23.66    24.82    
 26.01    27.25    28.59    30.00    31.47    32.96    34.58    36.32    38.16    40.04    
 41.98    43.96    45.99    48.08    50.27    52.56    54.84    57.15    59.48    61.85    
 64.32    66.90    69.58    72.36    75.25    78.22    81.19    84.37    87.69    90.97    
 94.27    97.67    101.16   104.69   108.10   111.33   114.33   117.08   119.54   121.74   
 123.65   125.23   126.57   127.48   127.93   127.80   127.08   125.75   123.85   121.31   
 118.25   114.74   111.01   106.94   102.78   98.42    94.07    89.77    85.41    80.69    
 75.07    
