IESNA:LM-63-2002
[TEST] 1
[TESTLAB] AOK
[TESTDATE] 2022-05-19
[ISSUEDATE] 2022-05-19 19:48:05
[NEARFIELD] 
[LAMPPOSITION] 0,0
[OTHER] EVERFINE GO-2000A_V1 SYSTEM
[MANUFAC] AOK
[LUMCAT] A
[LUMINAIRE] AOK-800WiSF-HV-S5-00-5070-30D-P
[LAMPCAT] B
[LAMP] 5050
[BALLAST] E
[BALLASTCAT] F
[OTHER] 
[OTHER] Gamma(deg)    Fz(lm)      Ft(lm)     %Lum    %Lamp
[OTHER]   0- 10     23317.87    23317.87    20.14    20.14
[OTHER]  10- 20     37674.38    60992.25    52.67    52.67
[OTHER]  20- 30     22287.29    83279.54    71.91    71.91
[OTHER]  30- 40     14057.48    97337.02    84.05    84.05
[OTHER]  40- 50      8504.22   105841.24    91.40    91.40
[OTHER]  50- 60      4678.18   110519.42    95.44    95.44
[OTHER]  60- 70      2589.10   113108.51    97.67    97.67
[OTHER]  70- 80      1272.60   114381.11    98.77    98.77
[OTHER]  80- 90       532.72   114913.84    99.23    99.23
[OTHER]  90-100       254.92   115168.75    99.45    99.45
[OTHER] 100-110       163.64   115332.39    99.59    99.59
[OTHER] 110-120       122.71   115455.10    99.70    99.70
[OTHER] 120-130        92.85   115547.95    99.78    99.78
[OTHER] 130-140        68.72   115616.67    99.84    99.84
[OTHER] 140-150        56.28   115672.95    99.89    99.89
[OTHER] 150-160        57.82   115730.77    99.94    99.94
[OTHER] 160-170        53.50   115784.27    99.98    99.98
[OTHER] 170-180        21.06   115805.33   100.00   100.00
[OTHER] 
TILT=NONE
1 1.1581e+005 1 181 25 1 2 0.150 0.200 0.000
1.000 1 805.782
0.0    1.0    2.0    3.0    4.0    5.0    6.0    7.0    8.0    9.0    
 10.0   11.0   12.0   13.0   14.0   15.0   16.0   17.0   18.0   19.0   
 20.0   21.0   22.0   23.0   24.0   25.0   26.0   27.0   28.0   29.0   
 30.0   31.0   32.0   33.0   34.0   35.0   36.0   37.0   38.0   39.0   
 40.0   41.0   42.0   43.0   44.0   45.0   46.0   47.0   48.0   49.0   
 50.0   51.0   52.0   53.0   54.0   55.0   56.0   57.0   58.0   59.0   
 60.0   61.0   62.0   63.0   64.0   65.0   66.0   67.0   68.0   69.0   
 70.0   71.0   72.0   73.0   74.0   75.0   76.0   77.0   78.0   79.0   
 80.0   81.0   82.0   83.0   84.0   85.0   86.0   87.0   88.0   89.0   
 90.0   91.0   92.0   93.0   94.0   95.0   96.0   97.0   98.0   99.0   
 100.0  101.0  102.0  103.0  104.0  105.0  106.0  107.0  108.0  109.0  
 110.0  111.0  112.0  113.0  114.0  115.0  116.0  117.0  118.0  119.0  
 120.0  121.0  122.0  123.0  124.0  125.0  126.0  127.0  128.0  129.0  
 130.0  131.0  132.0  133.0  134.0  135.0  136.0  137.0  138.0  139.0  
 140.0  141.0  142.0  143.0  144.0  145.0  146.0  147.0  148.0  149.0  
 150.0  151.0  152.0  153.0  154.0  155.0  156.0  157.0  158.0  159.0  
 160.0  161.0  162.0  163.0  164.0  165.0  166.0  167.0  168.0  169.0  
 170.0  171.0  172.0  173.0  174.0  175.0  176.0  177.0  178.0  179.0  
 180.0  
0.0    15.0   30.0   45.0   60.0   75.0   90.0   105.0  120.0  135.0  
 150.0  165.0  180.0  195.0  210.0  225.0  240.0  255.0  270.0  285.0  
 300.0  315.0  330.0  345.0  360.0  
267472.19 263902.36 260458.36 260065.70 259745.06 242312.48 225766.01 211921.69 189647.03 176486.82 
 157224.06 137730.47 114592.84 104892.45 95339.26 88609.54 81374.57 73695.83 54388.12 41519.05 
 30303.73 22630.08 13862.75 7495.36  1155.08  743.09   394.74   46.38    30.98    25.36    
 22.35    19.41    17.84    16.54    14.88    13.07    11.78    10.66    9.81     9.17     
 8.71     8.48     8.22     7.83     7.40     7.08     6.79     6.44     6.17     5.95     
 5.86     5.64     5.49     5.24     5.24     5.06     4.97     4.89     4.82     4.78     
 4.76     4.76     4.71     4.69     4.69     4.68     4.67     4.66     4.65     4.64     
 4.61     4.58     4.53     4.47     4.42     4.35     4.28     4.21     4.16     4.12     
 4.08     4.06     4.04     4.02     4.00     4.00     4.01     4.08     4.18     4.32     
 4.45     4.60     4.76     4.94     5.12     5.33     5.55     5.80     6.08     6.40     
 6.74     7.10     7.48     7.89     8.33     8.79     9.28     9.78     10.30    10.91    
 11.55    12.25    13.01    13.83    14.71    15.66    16.65    17.74    18.92    20.19    
 21.52    22.94    24.48    26.13    27.89    29.78    31.86    34.14    36.55    39.10    
 41.84    44.81    48.01    51.34    54.89    58.69    62.82    67.27    72.01    77.12    
 82.55    88.50    95.09    102.21   109.87   118.14   126.99   136.15   145.78   156.07   
 166.62   177.31   187.85   198.49   209.33   220.00   229.92   239.85   249.78   258.66   
 266.74   274.26   281.19   288.00   293.73   298.24   301.36   303.21   303.75   302.76   
 299.90   295.94   291.62   286.53   280.99   273.77   265.48   256.20   246.08   234.52   
 221.34   
267472.19 263576.63 260047.54 257832.98 256957.94 243266.93 229575.91 215865.91 200240.62 181177.77 
 163914.63 146776.55 129901.04 103698.16 94041.01 86427.11 78656.87 71014.36 63453.77 46400.32 
 35344.93 27331.97 19327.13 12336.90 7878.63  4250.42  653.21   436.33   316.27   196.82   
 138.70   91.87    103.51   100.24   53.90    33.41    25.38    21.21    18.92    17.27    
 16.12    15.29    14.36    13.38    12.42    11.61    10.96    10.17    9.19     8.55     
 7.97     7.61     7.40     7.12     6.86     6.64     6.54     6.41     6.25     6.08     
 5.90     5.75     5.61     5.49     5.40     5.30     5.18     5.07     4.93     4.79     
 4.66     4.54     4.42     4.32     4.22     4.13     4.04     3.94     3.87     3.80     
 3.74     3.73     3.73     3.74     3.75     3.79     3.85     3.93     4.02     4.13     
 4.27     4.41     4.55     4.72     4.91     5.13     5.36     5.60     5.88     6.19     
 6.53     6.88     7.25     7.64     8.07     8.51     9.01     9.51     10.06    10.62    
 11.23    11.90    12.65    13.45    14.27    15.20    16.22    17.29    18.38    19.58    
 20.88    22.32    23.89    25.53    27.26    29.15    31.22    33.44    35.80    38.29    
 40.98    43.83    46.88    50.12    53.60    57.31    61.36    65.70    70.26    75.21    
 80.79    86.72    93.11    100.17   107.81   115.99   125.36   134.72   144.32   154.73   
 165.19   176.12   186.75   197.60   208.41   219.04   229.45   239.12   248.45   257.29   
 265.53   273.34   280.67   287.81   293.44   298.32   301.69   303.37   303.63   302.70   
 300.31   297.09   293.31   288.44   282.96   276.23   268.28   259.40   249.46   238.55   
 221.34   
267472.19 263661.55 260168.22 256403.66 254716.45 251919.94 242133.53 218470.43 204039.50 189252.74 
 168384.30 155483.01 134868.81 118443.42 99537.36 80604.32 72393.72 64861.09 57108.70 50105.12 
 43537.58 32204.43 25524.52 20270.27 14604.17 11544.59 8407.91  5270.13  1371.41  903.25   
 478.25   290.96   205.54   168.66   136.09   109.64   83.26    70.27    56.41    45.83    
 40.21    35.03    31.16    27.60    25.27    23.68    21.71    20.08    18.52    17.12    
 14.72    13.13    12.36    11.40    10.25    9.21     8.92     8.91     8.85     8.57     
 8.22     7.79     7.46     7.22     7.01     6.81     6.63     6.44     6.26     6.08     
 5.87     5.63     5.41     5.20     4.99     4.77     4.55     4.36     4.17     4.01     
 3.87     3.75     3.68     3.68     3.69     3.77     3.85     3.96     4.08     4.21     
 4.34     4.50     4.67     4.88     5.09     5.31     5.56     5.83     6.12     6.43     
 6.76     7.12     7.49     7.88     8.32     8.78     9.27     9.76     10.30    10.90    
 11.55    12.25    12.98    13.78    14.67    15.59    16.58    17.62    18.82    20.10    
 21.47    22.89    24.45    26.15    27.93    29.78    31.77    33.95    36.28    38.74    
 41.34    44.07    46.96    50.10    53.55    57.26    61.14    65.34    69.85    74.82    
 80.28    86.14    92.51    99.52    107.17   115.25   123.76   133.04   142.84   152.92   
 163.16   173.79   184.70   195.46   206.33   216.94   227.16   237.80   248.44   257.32   
 266.32   274.80   282.70   289.46   295.27   299.78   303.17   305.13   306.39   305.68   
 303.75   301.03   297.92   293.83   288.23   281.41   273.34   264.18   254.59   243.36   
 221.34   
267472.19 263962.92 260801.35 257116.65 251823.74 245996.34 237426.22 228856.12 220183.14 197853.63 
 182937.02 167194.75 148595.98 131696.97 115983.99 98298.65 84164.70 72416.94 56263.23 47106.42 
 40916.82 35970.57 31880.79 28697.66 24956.58 21215.50 17475.13 13824.06 11527.93 8679.85  
 6986.56  5065.37  3629.39  2193.40  767.22   513.68   352.12   269.27   186.85   150.91   
 121.20   98.69    82.02    70.06    60.00    51.93    44.67    39.94    35.90    31.95    
 29.06    26.99    25.16    23.19    20.19    16.76    13.15    12.58    12.09    11.71    
 11.11    10.57    10.09    9.65     9.26     8.88     8.48     8.17     7.88     7.56     
 7.25     6.96     6.66     6.37     6.04     5.70     5.34     4.96     4.60     4.27     
 3.97     3.71     3.53     3.49     3.52     3.60     3.72     3.84     3.97     4.12     
 4.28     4.45     4.63     4.84     5.07     5.31     5.55     5.82     6.10     6.43     
 6.77     7.11     7.49     7.90     8.34     8.82     9.33     9.85     10.39    10.99    
 11.64    12.35    13.11    13.89    14.74    15.71    16.73    17.85    19.00    20.20    
 21.51    22.96    24.50    26.11    27.79    29.59    31.53    33.62    35.81    38.12    
 40.60    43.23    46.09    49.09    52.27    55.71    59.51    63.62    67.96    72.70    
 78.08    83.85    90.12    96.98    104.41   112.48   121.64   130.81   140.32   150.53   
 160.90   171.70   182.38   193.49   204.47   215.41   226.33   236.83   247.08   256.92   
 266.00   274.43   281.87   288.57   294.24   298.96   302.86   305.09   306.16   306.28   
 305.32   303.29   300.36   296.21   290.82   283.87   275.52   266.50   256.63   245.69   
 221.34   
267472.19 264559.84 261485.29 257160.31 250323.89 242506.80 235476.63 228067.03 220029.15 210424.75 
 199008.51 183827.99 163378.33 144703.88 128429.81 113480.31 98544.36 83608.41 71408.69 62135.83 
 51048.60 44290.14 38420.40 33733.32 29725.98 24992.94 22428.25 20371.76 18443.09 16663.89 
 15120.13 13587.02 12026.75 10309.57 8590.59  7124.79  5575.22  4456.04  3560.13  2862.47  
 2198.48  1570.41  1084.49  782.95   483.57   334.33   251.07   199.55   157.64   128.10   
 109.78   91.58    81.77    70.08    60.13    53.01    47.39    41.75    36.56    33.15    
 29.96    26.73    23.65    18.64    15.66    14.31    13.59    12.85    11.98    11.24    
 10.63    10.00    9.47     8.99     8.43     7.93     7.45     6.90     6.28     5.62     
 5.02     4.47     4.00     3.81     3.80     3.90     4.02     4.16     4.31     4.47     
 4.64     4.82     5.02     5.24     5.46     5.70     5.97     6.27     6.57     6.89     
 7.23     7.59     8.00     8.41     8.84     9.33     9.81     10.35    10.93    11.57    
 12.24    12.97    13.72    14.56    15.47    16.44    17.42    18.46    19.61    20.88    
 22.19    23.58    25.04    26.59    28.28    30.05    31.93    33.95    36.14    38.45    
 40.85    43.41    46.13    49.01    52.24    55.76    59.64    63.72    68.25    73.13    
 78.46    84.56    91.32    98.62    106.39   114.63   123.20   132.83   142.96   153.34   
 163.81   174.32   185.20   196.34   207.17   217.76   228.47   239.23   249.98   259.46   
 268.12   276.04   283.34   289.63   295.31   300.52   304.20   306.79   308.10   308.41   
 308.20   305.86   302.21   297.51   291.93   285.23   277.71   269.34   259.97   249.79   
 221.34   
267472.19 265617.37 263164.51 259239.84 252182.85 243842.20 235830.22 227807.08 218657.64 207498.45 
 195598.98 183340.99 168774.07 154684.17 139412.77 125420.90 111556.12 98772.46 87010.62 76951.93 
 68136.57 60611.12 53830.43 47484.54 43206.85 39526.37 36351.45 32631.18 29767.40 27240.10 
 24863.76 22489.38 20375.83 18656.54 17020.11 15407.40 13888.99 12619.64 11445.91 10275.90 
 9246.90  8300.65  7414.58  6610.79  5855.47  5223.29  4560.58  3981.67  3447.94  2971.24  
 2494.53  2018.55  1617.32  1257.88  973.70   738.04   581.97   457.84   375.08   307.16   
 252.43   197.84   157.99   127.63   105.97   88.51    73.95    60.90    51.18    43.71    
 37.47    32.56    28.37    23.78    18.05    16.49    15.11    13.42    12.02    10.80    
 9.41     7.68     5.64     3.96     3.47     3.54     3.65     3.75     3.88     4.02     
 4.17     4.33     4.51     4.71     4.94     5.17     5.42     5.69     5.98     6.27     
 6.58     6.90     7.26     7.63     8.05     8.50     8.99     9.50     10.06    10.67    
 11.31    11.98    12.73    13.52    14.36    15.26    16.24    17.24    18.28    19.40    
 20.62    21.94    23.40    24.89    26.45    28.16    30.03    32.01    34.14    36.40    
 38.80    41.38    44.12    47.05    50.22    53.69    57.45    61.51    65.75    70.54    
 76.01    81.88    88.31    95.36    103.03   111.40   120.93   130.45   140.16   150.68   
 161.20   172.19   183.09   194.21   205.30   216.28   227.23   237.57   247.74   257.60   
 266.66   275.37   283.30   290.72   297.41   303.00   307.37   310.67   312.85   313.91   
 313.64   312.00   309.07   305.11   300.08   294.06   287.06   279.31   270.76   261.34   
 221.34   
267472.19 266905.54 265966.12 263677.70 258144.15 250271.00 242630.40 234979.22 226478.73 215318.95 
 202924.92 190998.87 176134.21 161634.15 146048.35 130978.31 117218.11 103841.34 91955.86 81345.35 
 72423.45 65454.65 59794.59 55015.85 50561.70 46717.01 43390.55 40256.88 37316.13 34580.32 
 32056.93 29865.77 27797.09 26032.51 24267.93 22505.49 20932.09 19489.57 18091.83 16838.22 
 15725.58 14570.82 13472.55 12528.24 11477.64 10579.34 9725.09  8886.95  8119.42  7437.63  
 6825.88  6253.52  5743.17  5273.30  4863.75  4489.13  4140.64  3825.73  3524.07  3255.39  
 2985.53  2751.57  2517.61  2283.94  2072.72  1879.66  1702.43  1534.24  1378.85  1229.24  
 1095.42  967.16   848.49   741.35   642.06   551.25   465.96   388.89   321.84   270.67   
 219.51   168.51   132.37   102.67   69.39    32.09    7.90     4.71     3.72     3.27     
 2.94     2.69     2.50     2.53     2.46     1.99     1.56     1.66     1.71     1.71     
 1.68     1.70     1.75     1.81     1.88     1.91     1.92     2.02     2.17     2.17     
 2.28     2.45     2.50     2.63     2.78     2.95     3.20     3.35     3.51     3.67     
 3.87     4.08     4.33     4.62     4.93     5.27     5.65     6.07     6.55     7.06     
 7.60     8.21     8.87     9.55     10.28    11.10    12.01    13.04    14.16    15.34    
 16.68    18.17    19.83    21.70    23.69    25.92    28.33    30.89    33.65    36.61    
 39.72    43.01    46.51    50.27    54.26    58.51    63.01    67.82    72.91    78.11    
 83.56    89.12    94.96    101.13   107.21   113.60   120.44   128.02   135.60   143.45   
 151.78   160.46   169.28   178.80   188.66   199.09   209.36   219.75   230.00   239.73   
 221.34   
267472.19 267796.25 267679.12 266081.91 261559.11 254318.94 247596.92 239844.45 231324.92 221443.22 
 209715.28 196774.77 183106.04 168354.10 152875.13 137869.47 124182.37 112389.26 100614.86 88840.46 
 80011.87 72855.46 67108.28 62222.09 57972.90 54003.98 50412.15 47218.87 44214.83 41344.01 
 38761.10 36427.82 34084.86 31952.96 29970.35 28144.46 26559.06 24943.68 23483.62 22084.41 
 20761.43 19558.62 18245.45 17070.65 15988.73 14951.46 13902.61 12929.41 12020.62 11223.08 
 10426.38 9695.22  9058.73  8483.29  7985.52  7511.48  7038.86  6619.17  6248.03  5883.74  
 5530.82  5187.01  4866.55  4577.78  4293.36  4017.05  3750.51  3507.08  3265.06  3036.38  
 2825.20  2633.96  2447.84  2261.64  2087.96  1933.36  1790.66  1646.85  1513.93  1393.23  
 1283.94  1190.45  1097.07  1003.70  918.78   842.94   772.35   708.81   653.47   606.03   
 557.18   510.92   468.34   428.93   392.63   358.92   328.23   302.35   279.04   253.53   
 231.43   212.02   194.68   178.52   162.73   147.85   133.28   120.29   107.30   96.29    
 86.22    77.63    68.88    60.57    51.79    43.25    35.84    30.33    17.31    5.69     
 3.97     3.87     3.92     4.11     4.34     4.58     4.89     5.23     5.60     6.11     
 6.83     7.67     8.59     9.82     10.71    10.34    10.51    11.10    11.83    12.68    
 13.79    14.91    16.25    18.45    19.78    21.48    23.32    25.24    27.44    29.93    
 32.62    34.84    36.80    40.06    43.57    47.20    51.08    55.19    59.58    64.16    
 69.05    74.21    79.58    85.32    91.31    97.58    104.02   110.82   118.04   127.03   
 134.79   142.70   152.25   161.98   172.05   182.83   193.95   205.11   216.21   227.67   
 221.34   
267472.19 268718.44 269833.41 269891.72 268047.86 263480.26 257319.92 250940.96 243015.54 235058.32 
 224074.60 211918.65 198075.75 182434.72 166405.68 151196.26 136719.67 122712.28 109707.47 98406.06 
 89154.66 81699.14 75818.46 70591.12 65807.00 61530.31 57803.28 54170.94 50812.06 47718.42 
 44871.35 42470.10 40043.02 37808.29 35698.98 33777.41 31927.70 30103.60 28427.41 26824.43 
 25357.21 23889.98 22424.17 21094.21 19762.12 18457.50 17266.97 16146.31 15105.31 14054.37 
 13115.13 12219.04 11390.95 10560.41 9820.83  9159.15  8575.14  8049.80  7577.56  7131.26  
 6730.47  6329.22  5955.49  5592.28  5265.50  4950.52  4652.13  4358.73  4078.60  3794.97  
 3523.12  3259.24  3021.43  2807.40  2593.37  2379.62  2193.39  2017.24  1857.06  1704.03  
 1565.74  1441.96  1333.10  1231.96  1137.69  1051.14  972.60   902.62   839.81   789.94   
 735.45   683.13   635.42   591.23   552.12   516.88   485.27   457.10   429.48   406.43   
 386.92   369.56   354.47   340.09   327.64   316.54   306.02   296.90   288.44   280.34   
 272.87   268.14   260.90   253.60   245.44   237.27   229.09   220.21   211.99   202.65   
 193.70   184.17   174.25   164.34   154.48   144.05   133.83   122.90   110.62   97.09    
 80.02    55.10    34.59    24.07    20.96    20.48    11.98    7.13     7.51     8.14     
 8.89     9.73     10.71    11.84    13.10    14.52    16.11    17.93    20.18    22.73    
 25.54    29.44    43.37    36.66    34.55    37.67    40.96    44.49    48.30    52.35    
 56.62    61.12    65.92    71.04    76.38    82.09    88.09    94.60    102.17   108.97   
 116.93   125.82   135.47   145.82   156.13   166.58   178.19   189.58   201.60   213.79   
 221.34   
267472.19 269762.80 271935.39 273548.40 273879.80 272130.30 267493.60 261075.96 253246.94 244289.03 
 234085.23 221996.44 207817.69 192504.60 176504.12 160258.82 144931.76 130605.13 117284.10 107155.81 
 97057.54 89886.41 84095.97 78675.94 74000.30 69569.96 65572.20 61791.49 58284.60 54879.91 
 51603.58 48666.91 45964.36 43311.70 40778.99 38498.41 36307.59 34205.20 32129.11 30194.76 
 28273.77 26317.08 24459.58 22682.65 21006.04 19561.40 18146.64 16855.69 15701.30 14675.61 
 13717.32 12808.64 11984.03 11231.84 10480.32 9820.36  9208.87  8668.50  8164.68  7689.45  
 7190.59  6724.36  6299.05  5915.71  5530.35  5165.55  4818.71  4478.89  4140.75  3834.95  
 3557.30  3304.93  3057.48  2816.65  2596.87  2388.19  2188.49  2003.81  1829.76  1673.58  
 1531.29  1405.28  1285.47  1191.25  1097.23  1003.20  924.42   850.03   793.99   748.15   
 695.32   645.03   601.69   564.80   532.70   505.24   480.30   460.08   442.47   426.75   
 413.31   401.24   391.00   381.26   372.00   363.05   355.17   348.06   340.74   333.67   
 326.13   319.37   313.18   306.65   300.33   294.67   289.18   283.76   278.23   273.45   
 268.32   264.27   260.19   255.12   248.85   242.89   237.10   231.31   224.58   218.43   
 209.60   200.43   191.09   182.32   172.85   163.37   153.86   142.82   130.98   116.39   
 101.78   76.29    27.65    17.20    15.61    14.89    13.63    14.88    16.72    18.78    
 21.02    23.40    25.97    28.69    31.53    34.57    38.04    41.64    45.85    61.35    
 58.34    56.15    60.68    65.66    71.01    76.64    82.43    88.65    95.15    101.96   
 109.15   117.11   125.80   135.07   145.61   156.64   168.22   180.27   192.60   205.38   
 221.34   
267472.19 270530.69 273825.91 276950.84 279097.03 279147.54 276743.69 271813.57 264940.66 256459.34 
 244408.90 232358.45 220268.42 204668.13 188442.56 172422.81 157340.60 142648.83 129366.96 118065.22 
 108873.86 101359.11 95211.19 89733.29 84469.84 79547.15 74892.81 70431.17 66146.58 62058.13 
 58417.56 54936.08 51644.33 48618.58 45563.66 42742.45 39857.12 36926.64 34210.31 31802.55 
 29632.55 27751.41 26072.53 24447.23 22822.85 21283.98 19886.26 18538.56 17232.55 15981.47 
 14912.82 13921.08 12998.41 12130.89 11313.59 10588.91 9932.88  9326.73  8750.36  8206.97  
 7694.29  7191.41  6700.42  6227.66  5796.31  5407.54  5038.80  4696.44  4370.81  4064.14  
 3760.45  3470.50  3185.33  2929.13  2705.31  2481.55  2264.17  2058.96  1872.73  1703.33  
 1549.26  1402.16  1272.11  1161.99  1065.60  979.67   898.60   822.74   769.00   725.58   
 677.05   629.96   587.19   551.08   520.92   495.51   475.36   456.62   440.07   426.55   
 416.09   407.29   399.58   392.44   386.04   380.12   374.19   367.71   361.62   355.89   
 350.23   344.44   338.52   332.60   326.90   320.80   314.36   308.79   302.96   297.57   
 292.11   286.93   281.62   275.88   270.44   265.22   259.70   254.40   249.57   244.04   
 238.51   232.99   227.61   222.32   216.35   210.02   203.14   194.42   186.11   177.64   
 168.31   158.36   146.97   130.58   119.74   113.27   104.54   66.34    27.70    26.84    
 25.34    22.77    23.83    26.80    29.95    33.28    36.78    40.57    44.50    48.66    
 53.06    57.69    66.13    89.87    70.20    75.54    80.84    86.89    93.17    99.97    
 106.96   114.39   122.18   130.90   140.28   151.01   163.01   175.16   187.89   201.20   
 221.34   
267472.19 271355.70 275642.17 279613.62 282269.52 282407.81 279630.07 274877.98 268597.89 260873.47 
 251228.55 239817.81 226841.48 212460.27 196755.11 180920.25 165841.95 151522.14 138718.67 127518.43 
 118041.39 111382.25 104748.15 98713.98 92986.86 87671.58 82490.74 77436.05 72820.69 68463.65 
 64263.83 60136.93 56117.90 52246.77 48603.34 45208.18 42168.76 39430.32 36888.00 34590.09 
 32496.94 30457.37 28485.76 26713.29 24982.32 23275.54 21580.88 20021.43 18586.31 17259.49 
 15960.89 14722.43 13671.05 12732.59 11914.27 11158.03 10402.33 9737.17  9117.88  8481.23  
 7896.84  7383.58  6902.43  6461.00  6043.30  5644.32  5269.26  4910.52  4549.51  4198.54  
 3881.10  3580.85  3310.89  3047.66  2797.37  2563.70  2343.86  2133.81  1937.14  1759.10  
 1592.50  1444.93  1312.02  1199.28  1100.72  1002.31  914.89   841.78   791.56   750.03   
 700.52   647.77   602.24   563.36   532.35   507.58   486.60   469.20   453.53   439.70   
 428.96   419.81   412.02   404.62   398.10   391.76   385.52   379.70   374.28   368.12   
 362.74   357.44   352.20   346.95   341.62   336.46   331.86   325.77   319.39   313.26   
 307.70   302.50   297.25   291.87   287.41   282.69   277.96   272.85   267.92   262.33   
 257.82   251.97   247.07   241.65   236.27   221.14   214.42   209.29   204.44   198.33   
 191.23   185.01   179.23   173.46   167.99   158.84   150.05   144.30   137.66   88.01    
 38.02    25.27    26.77    29.01    30.96    34.47    38.52    42.52    46.89    51.64    
 56.47    61.46    66.51    72.61    106.31   79.30    83.02    88.67    94.63    101.10   
 108.14   115.79   123.79   132.11   141.39   151.89   163.52   175.84   188.77   202.45   
 221.34   
267472.19 271680.47 276321.84 280748.01 283678.76 283967.20 281659.48 277272.85 271069.32 263325.66 
 253895.33 242345.79 230769.13 216777.79 201509.05 186233.56 171062.12 156653.63 143556.14 132592.64 
 123481.24 115999.33 109492.58 103490.47 97680.49 92071.36 86730.89 81706.30 76978.50 72284.02 
 67727.45 63474.33 59133.19 55080.13 51316.78 47988.35 44986.08 42144.50 39518.17 37040.42 
 34753.16 32533.75 30569.21 28561.47 26587.33 24792.86 23000.27 21373.64 19809.77 18299.17 
 16853.91 15542.86 14393.11 13331.34 12408.99 11583.80 10838.15 10137.74 9431.21  8785.93  
 8200.94  7664.45  7162.54  6703.00  6268.54  5861.94  5468.65  5081.26  4720.15  4377.96  
 4042.14  3736.65  3453.83  3190.34  2934.19  2689.09  2444.24  2223.01  2017.90  1829.45  
 1651.53  1491.66  1352.00  1231.76  1121.74  1022.80  933.60   854.86   799.37   756.50   
 709.89   656.71   611.00   573.28   543.35   518.32   495.69   475.97   457.37   441.72   
 429.01   419.77   411.22   404.07   397.79   391.72   385.92   380.25   375.27   370.22   
 365.12   360.18   355.16   350.06   345.34   340.72   336.26   331.59   326.91   321.55   
 316.89   312.13   307.46   302.66   298.02   293.18   288.51   283.84   279.03   274.22   
 268.85   263.36   257.64   251.88   246.41   235.58   224.80   218.62   213.76   209.37   
 204.56   199.13   193.71   188.49   183.12   177.52   172.19   167.10   161.91   154.26   
 132.60   34.26    31.50    31.58    32.50    35.51    39.91    44.54    49.31    54.27    
 59.46    64.71    70.20    76.36    92.90    105.01   86.99    91.79    97.24    103.56   
 110.51   118.21   126.31   134.89   144.00   154.29   166.04   178.54   191.98   205.90   
 221.34   
267472.19 271883.64 276496.68 280282.40 282403.36 282339.87 280133.08 276014.03 269945.58 261927.33 
 251998.76 240633.53 228033.08 214199.09 199013.18 183184.98 168261.44 154210.04 141585.61 130196.63 
 121026.65 113968.41 106928.83 100846.71 94950.10 89429.60 84117.20 79119.88 74414.39 69924.35 
 65503.34 61370.49 57346.67 53308.05 49533.38 46159.15 43024.83 40259.25 37787.33 35369.91 
 33212.83 31097.66 29179.80 27311.05 25529.41 23720.95 22018.70 20415.92 18948.03 17627.17 
 16330.69 15082.02 13963.75 12964.88 12065.59 11275.52 10486.42 9808.47  9171.83  8529.92  
 7955.56  7423.16  6935.52  6486.22  6073.23  5670.95  5296.34  4933.55  4574.06  4230.59  
 3904.04  3600.82  3330.51  3068.49  2819.32  2582.25  2359.27  2146.01  1946.41  1764.51  
 1594.36  1446.29  1313.19  1198.12  1097.98  997.99   915.04   839.87   786.35   743.01   
 695.97   642.44   596.82   557.68   525.09   499.21   478.29   461.72   445.79   431.84   
 420.84   412.02   404.80   398.63   392.00   385.70   379.86   375.03   370.13   365.01   
 359.64   354.69   350.30   345.31   340.84   336.72   332.64   327.45   321.56   316.30   
 310.58   305.28   299.69   294.05   288.20   283.07   277.82   272.40   267.33   262.00   
 255.76   249.38   242.45   236.15   231.11   218.20   213.45   208.68   203.77   197.45   
 191.73   186.09   179.72   173.52   166.67   154.78   146.55   139.47   131.23   82.45    
 33.34    30.99    30.63    31.02    34.15    38.46    43.09    47.94    53.11    58.45    
 64.01    69.92    76.25    89.06    107.80   90.11    94.47    99.40    104.70   110.12   
 116.49   123.89   131.90   140.25   149.42   160.18   171.78   184.20   197.33   211.22   
 221.34   
267472.19 271593.91 275470.85 278509.15 280233.24 280215.32 278724.77 275369.55 270125.82 262609.37 
 253064.51 241019.89 228943.78 214070.65 198106.26 181962.54 166222.74 151182.02 137283.12 125156.44 
 114779.46 106466.38 99722.56 93786.66 88243.29 83102.32 78198.46 73472.79 68911.24 64643.74 
 60727.60 57224.80 53753.83 50328.78 47159.84 44108.56 41065.07 38021.54 35306.48 32876.47 
 30704.86 28848.54 27102.18 25476.35 23850.51 22226.24 20744.56 19325.79 17954.91 16640.32 
 15515.59 14434.04 13442.49 12507.73 11644.32 10887.14 10175.87 9519.70  8922.56  8346.31  
 7824.69  7321.92  6835.48  6354.68  5911.73  5522.31  5157.66  4805.19  4475.14  4161.06  
 3853.50  3560.82  3283.78  3019.89  2791.90  2563.91  2336.11  2125.93  1935.08  1762.03  
 1600.91  1446.58  1306.60  1187.04  1088.21  996.65   915.73   839.05   775.40   729.74   
 685.60   635.56   589.13   548.98   514.67   487.10   464.43   445.08   428.21   414.14   
 403.26   394.23   386.59   379.64   373.80   367.92   362.29   356.50   350.92   345.14   
 339.90   334.25   329.36   324.82   319.70   313.78   308.46   303.14   297.26   291.85   
 285.81   280.06   274.57   269.21   264.15   259.09   254.24   248.96   243.46   237.40   
 231.34   225.73   219.76   213.94   207.72   201.21   192.41   183.70   175.93   167.62   
 159.70   151.72   138.37   129.41   120.98   109.33   79.82    29.38    26.45    26.20    
 25.30    26.79    30.33    34.21    38.29    42.62    47.20    52.05    57.34    63.19    
 69.67    78.71    97.70    85.44    89.98    95.10    100.25   105.99   112.09   118.27   
 124.44   131.23   138.33   146.86   156.29   166.86   178.12   190.03   202.80   215.96   
 221.34   
267472.19 270945.39 273713.57 275653.73 276647.46 276459.22 274933.25 271596.09 266130.34 258650.35 
 248140.16 235607.77 221297.06 206110.39 190251.06 174229.83 158407.25 143832.66 130247.54 117649.29 
 107759.35 97894.18 90869.89 84957.38 79652.48 74900.21 70563.20 66483.14 62561.78 58930.99 
 55478.80 52360.41 49432.67 46479.26 43725.04 41351.89 38895.81 36529.04 34352.86 32140.95 
 30053.64 27998.80 26049.75 24175.94 22369.25 20860.31 19439.95 18125.93 16902.76 15766.39 
 14719.65 13709.77 12805.71 11980.79 11209.57 10438.84 9748.94  9131.09  8564.21  8047.32  
 7532.80  7051.35  6603.28  6204.64  5793.00  5421.64  5070.86  4729.78  4381.24  4057.62  
 3764.35  3493.93  3246.58  2996.76  2763.92  2551.85  2341.16  2142.37  1963.10  1796.29  
 1641.09  1502.24  1376.21  1256.96  1162.67  1068.63  974.59   895.90   824.65   771.63   
 723.35   669.98   621.64   580.36   543.86   512.32   485.76   462.27   442.36   424.60   
 409.60   396.29   385.00   374.62   365.14   356.23   348.62   341.55   334.88   327.91   
 320.47   312.98   306.69   300.06   293.69   287.70   281.55   275.28   269.47   263.36   
 257.67   252.21   246.44   240.50   234.31   227.25   219.94   213.31   207.97   203.40   
 195.52   187.13   178.18   168.80   159.21   149.95   139.89   127.89   113.98   100.06   
 78.34    36.68    24.30    20.35    17.66    17.03    18.80    21.16    23.69    26.61    
 29.79    33.16    36.72    40.64    45.09    49.82    54.94    62.67    76.37    69.97    
 74.36    79.11    84.22    89.23    94.60    100.46   106.24   112.53   119.09   124.96   
 131.05   137.91   145.79   154.60   164.03   174.05   184.62   195.89   207.69   220.43   
 221.34   
267472.19 269829.66 271399.06 272260.68 272609.98 272472.42 270754.47 267245.00 260693.47 251914.02 
 240846.82 229779.61 218672.23 203996.34 188299.18 172555.85 156863.88 141562.49 127308.37 114309.85 
 102701.37 92753.61 84937.99 78495.05 73150.96 68478.27 64248.69 60269.95 56743.38 53265.33 
 50236.69 47352.84 44557.92 42059.50 39929.84 37661.80 35561.16 33451.76 31588.48 29789.22 
 28130.36 26493.29 25032.53 23571.77 22111.01 20651.66 19378.56 18153.15 16987.47 15830.36 
 14762.61 13739.32 12768.22 11807.14 10914.46 10157.91 9449.96  8777.37  8193.57  7703.74  
 7245.91  6822.48  6402.93  6010.57  5646.79  5319.66  4999.40  4693.13  4400.84  4122.48  
 3852.41  3582.88  3325.39  3083.45  2855.08  2638.11  2421.40  2228.76  2057.11  1895.24  
 1739.96  1595.94  1465.47  1355.61  1252.62  1155.38  1062.71  980.58   909.76   844.93   
 791.00   738.08   683.29   633.04   589.05   549.72   512.69   479.92   450.55   422.29   
 398.25   378.44   360.91   344.75   329.81   316.91   304.66   292.75   281.66   271.26   
 262.57   254.60   248.76   240.20   231.64   223.07   214.08   205.11   195.54   185.93   
 176.76   167.27   158.55   150.18   141.07   131.89   121.94   110.61   98.44    83.24    
 65.18    44.86    30.65    23.84    18.12    10.61    9.57     10.39    11.33    12.39    
 13.61    14.95    16.43    18.16    20.03    22.16    24.66    27.58    30.88    35.26    
 45.75    41.85    44.02    47.53    51.01    54.93    59.33    63.82    68.65    73.65    
 78.93    84.30    89.85    95.60    101.40   107.50   113.58   119.96   126.97   133.99   
 141.22   148.88   156.98   165.80   175.05   184.87   195.25   205.84   216.93   227.95   
 221.34   
267472.19 268580.39 268706.30 268277.64 267610.33 266085.85 262758.19 256489.08 249217.04 241467.89 
 232505.08 221424.40 209076.59 195312.85 180444.30 165098.42 150141.37 135419.33 121830.03 110519.96 
 99231.26 87942.57 79778.46 72827.05 67133.93 62360.13 58163.39 54449.57 50966.76 47610.86 
 44462.65 41671.01 39124.31 36778.62 34641.35 32716.47 30750.40 28854.24 27080.57 25454.84 
 24111.00 22629.67 21236.62 19906.77 18674.94 17498.56 16318.75 15216.94 14146.97 13155.31 
 12229.23 11435.56 10643.20 9850.83  9198.09  8592.87  8023.63  7509.26  7039.64  6598.86  
 6186.80  5812.38  5455.38  5116.72  4794.82  4494.01  4199.33  3926.04  3659.26  3398.47  
 3162.25  2946.80  2747.09  2542.61  2357.43  2179.94  2017.53  1856.45  1711.19  1574.37  
 1446.71  1329.41  1220.11  1129.97  1039.98  949.98   866.00   789.19   720.99   662.40   
 610.58   564.13   519.90   477.22   437.37   399.77   364.29   332.02   302.89   276.43   
 252.03   226.41   206.49   188.11   170.54   154.31   139.70   126.59   114.73   102.87   
 92.89    83.17    73.74    63.59    53.85    45.87    38.83    25.90    9.02     5.38     
 5.29     5.42     5.65     5.94     6.24     6.68     7.16     7.76     8.57     9.39     
 10.38    11.40    12.62    13.44    13.78    14.44    15.35    16.40    17.54    18.76    
 19.98    21.35    23.03    25.60    28.41    30.28    31.53    34.76    38.53    41.43    
 44.55    47.04    49.55    53.60    57.88    62.26    66.94    71.90    77.05    82.39    
 88.04    93.82    99.79    105.98   112.26   118.73   125.38   132.31   139.43   146.73   
 154.29   162.19   170.59   179.36   188.60   198.52   208.82   219.19   229.45   240.95   
 221.34   
267472.19 267557.84 267041.96 266360.51 265200.13 262332.06 256264.40 249283.29 242132.49 233589.95 
 223878.88 212048.72 199757.36 186586.63 171458.12 156945.15 141645.07 127287.35 114655.42 102044.88 
 89434.34 79461.33 71166.74 64630.25 59145.96 54392.07 50170.43 46441.38 43012.49 39868.93 
 36907.41 34285.33 31810.17 29697.93 27546.18 25751.38 23845.32 22271.79 20721.89 19346.39 
 17953.31 16742.43 15597.28 14444.96 13431.47 12352.11 11436.18 10522.07 9607.96  8812.15  
 8064.74  7417.07  6814.88  6234.56  5710.82  5274.25  4843.12  4461.97  4094.25  3768.96  
 3466.69  3188.78  2920.00  2679.89  2457.82  2249.65  2048.48  1865.10  1690.78  1524.61  
 1368.60  1223.17  1092.36  961.69   845.50   739.58   640.98   547.35   462.54   388.57   
 324.17   266.64   214.61   171.21   133.36   94.64    55.92    20.75    8.29     6.58     
 6.07     5.71     5.55     5.41     5.38     5.48     5.51     4.89     4.94     5.20     
 5.39     5.56     5.72     5.95     6.20     6.49     6.87     7.18     7.54     7.92     
 8.27     8.70     9.17     9.65     10.13    10.71    11.34    12.06    12.77    13.51    
 14.30    15.16    16.11    17.16    18.29    19.48    20.74    22.15    23.65    25.26    
 26.99    28.79    30.74    32.84    35.09    37.58    40.26    43.17    46.41    49.97    
 53.80    58.16    63.19    68.79    74.92    81.66    89.16    97.10    105.72   115.03   
 124.80   134.82   145.06   155.70   166.58   177.34   187.92   198.54   209.17   219.39   
 229.25   239.22   249.18   257.48   265.08   272.01   278.15   283.42   287.64   290.68   
 292.49   293.11   292.51   290.86   288.16   284.14   279.20   273.04   266.17   258.29   
 221.34   
267472.19 266865.47 265858.57 264691.47 263433.19 260916.36 255948.61 248862.87 241078.04 233276.74 
 223345.38 212335.38 199615.41 186416.92 171330.92 153253.34 135156.49 117573.09 102868.58 91079.65 
 80162.33 69035.84 60711.44 53740.38 48418.63 43034.70 38724.90 35139.25 32329.18 29438.36 
 26834.04 24229.71 21630.23 19645.12 17645.42 15738.51 14146.38 12792.49 11262.28 10133.09 
 9025.20  8074.05  7236.80  6456.20  5835.55  5197.14  4561.78  3905.77  3336.38  2787.98  
 2240.31  1770.83  1401.24  1112.16  885.51   727.44   598.43   491.21   402.28   327.50   
 277.97   228.43   179.07   146.89   120.73   100.01   81.85    67.13    55.87    47.66    
 40.76    35.06    31.02    27.08    23.50    18.43    14.63    13.38    12.20    11.03    
 10.03    8.89     7.86     6.64     5.28     4.05     3.61     3.68     3.78     3.90     
 4.03     4.17     4.32     4.49     4.68     4.87     5.08     5.31     5.56     5.82     
 6.09     6.35     6.65     6.96     7.30     7.67     8.05     8.48     8.96     9.46     
 9.97     10.53    11.15    11.80    12.48    13.23    14.04    14.90    15.80    16.77    
 17.81    18.91    20.13    21.37    22.68    24.13    25.70    27.38    29.20    31.11    
 33.16    35.32    37.65    40.09    42.66    45.45    48.51    51.82    55.13    58.84    
 63.11    67.72    72.98    78.76    85.08    92.03    99.52    107.72   116.32   126.31   
 136.31   146.66   156.88   167.50   178.30   189.01   199.84   209.97   220.27   230.14   
 239.48   248.47   256.75   264.60   271.65   278.07   283.42   287.93   291.43   293.92   
 295.09   294.82   293.36   290.85   287.07   282.10   275.86   268.46   259.98   250.45   
 221.34   
267472.19 266065.29 264417.70 263444.63 263594.06 262920.17 259612.93 252694.57 237063.36 218542.54 
 203688.36 187444.81 171543.12 155764.87 137917.19 121999.16 107073.75 92158.23 79557.44 67498.08 
 56470.31 47764.35 38151.11 33164.37 29717.50 26668.96 24046.40 21872.07 19684.48 17727.04 
 15907.56 14085.77 11854.57 9618.54  7382.50  6152.36  4728.02  3966.35  2968.24  2286.94  
 1645.98  1253.64  864.36   475.08   351.29   271.42   214.24   169.21   137.98   117.26   
 96.65    82.81    71.04    61.55    53.55    47.78    42.41    38.19    34.17    31.47    
 28.96    26.68    24.69    22.39    19.31    14.97    13.26    12.40    11.69    11.07    
 10.46    9.88     9.38     8.94     8.47     8.04     7.61     7.17     6.73     6.26     
 5.79     5.32     4.85     4.45     4.14     4.04     4.07     4.18     4.32     4.47     
 4.62     4.80     4.97     5.18     5.41     5.64     5.89     6.15     6.43     6.73     
 7.05     7.38     7.73     8.12     8.53     8.96     9.41     9.89     10.40    10.94    
 11.53    12.17    12.84    13.56    14.32    15.16    16.05    16.98    17.98    19.04    
 20.18    21.38    22.71    24.08    25.54    27.05    28.75    30.54    32.44    34.42    
 36.51    38.75    41.17    43.76    46.49    49.44    52.65    56.24    60.13    64.31    
 68.90    73.89    79.39    85.70    92.62    100.06   108.05   116.36   125.46   135.20   
 145.15   155.25   165.64   176.21   186.67   197.00   207.20   217.19   226.98   236.93   
 246.88   255.23   262.99   269.85   276.04   281.50   286.11   289.81   292.07   293.35   
 293.58   292.15   289.27   285.51   280.70   274.70   267.39   258.93   249.50   239.11   
 221.34   
267472.19 265379.57 263147.51 263191.36 263631.10 263652.08 249024.33 234396.61 219760.93 204036.56 
 184745.35 169195.19 152847.68 133687.72 117812.14 102971.91 82580.74 69752.41 61766.16 54050.29 
 47237.15 41251.46 35517.24 30305.18 25093.12 19891.63 15874.36 11825.19 9864.76  6980.40  
 5356.69  3311.70  1278.49  743.77   498.73   343.81   260.38   177.27   130.43   102.30   
 83.34    70.52    60.05    50.31    43.83    40.27    36.57    33.24    30.92    28.83    
 26.98    24.99    23.70    22.30    20.32    18.33    16.33    14.05    11.73    11.18    
 10.79    10.33    9.87     9.44     9.08     8.72     8.39     8.11     7.82     7.55     
 7.29     7.02     6.77     6.49     6.20     5.90     5.65     5.39     5.13     4.88     
 4.62     4.40     4.19     4.02     3.95     3.96     4.04     4.16     4.28     4.42     
 4.58     4.74     4.92     5.12     5.34     5.57     5.81     6.07     6.34     6.65     
 6.97     7.31     7.66     8.05     8.46     8.89     9.38     9.89     10.39    10.94    
 11.52    12.17    12.86    13.57    14.32    15.19    16.14    17.18    18.22    19.34    
 20.54    21.87    23.30    24.82    26.37    28.06    29.87    31.84    33.89    36.06    
 38.37    40.84    43.48    46.30    49.28    52.48    56.04    59.83    63.83    68.22    
 73.14    78.52    84.24    90.58    97.46    104.99   112.96   121.96   130.97   140.67   
 150.36   160.46   170.85   181.25   191.96   202.40   213.06   223.19   233.27   242.83   
 251.59   259.83   267.24   274.12   279.90   284.74   288.46   290.82   292.26   292.60   
 291.80   289.86   286.52   281.99   276.28   269.51   261.65   252.89   242.80   232.12   
 221.34   
267472.19 264734.51 262636.79 262853.55 263094.79 251069.17 234717.55 219861.54 204945.35 187127.55 
 170825.20 152990.58 134064.58 114291.36 101068.61 87915.85 80191.64 71847.25 63589.50 56237.92 
 41334.15 32117.85 24760.79 17122.34 13081.07 9643.15  6211.28  1480.68  929.97   432.92   
 289.86   197.78   151.16   118.64   86.27    78.19    62.05    52.54    46.11    41.58    
 35.37    31.29    29.30    28.09    24.90    23.71    21.52    20.35    18.58    17.29    
 15.93    14.68    12.55    10.63    9.62     8.83     8.48     8.32     8.13     7.92     
 7.69     7.46     7.28     7.07     6.87     6.68     6.52     6.33     6.16     5.95     
 5.77     5.59     5.43     5.28     5.13     4.97     4.81     4.67     4.52     4.39     
 4.28     4.17     4.08     4.02     4.01     4.01     4.09     4.19     4.30     4.43     
 4.58     4.74     4.93     5.14     5.35     5.57     5.83     6.11     6.39     6.69     
 7.02     7.39     7.75     8.15     8.56     9.02     9.51     10.00    10.52    11.11    
 11.77    12.44    13.15    13.94    14.81    15.72    16.67    17.66    18.79    20.03    
 21.34    22.73    24.22    25.84    27.59    29.42    31.36    33.49    35.73    38.12    
 40.66    43.34    46.26    49.37    52.68    56.17    60.01    64.16    68.64    73.43    
 78.53    84.15    90.34    97.05    104.23   112.06   120.43   129.13   138.30   148.04   
 158.01   168.02   178.04   188.29   198.71   208.90   218.67   228.30   238.47   248.65   
 257.43   265.77   273.26   279.93   285.43   289.61   292.39   294.20   294.74   294.31   
 292.96   290.21   286.41   281.70   275.19   268.22   260.29   251.10   240.94   229.42   
 221.34   
267472.19 264227.91 261366.94 261408.44 261455.21 244976.53 228522.95 214564.86 194187.16 181357.82 
 160034.56 142303.90 120735.88 103108.22 96817.19 90351.17 83419.31 75867.95 62951.84 47994.51 
 36312.84 27233.84 18180.33 12258.31 8258.23  4258.15  293.94   237.18   180.43   123.63   
 61.84    40.01    30.37    24.37    21.36    19.17    17.67    16.39    15.33    14.39    
 13.43    12.54    11.96    11.13    10.47    9.92     9.47     9.11     8.71     7.99     
 7.19     6.91     6.98     7.13     7.11     7.03     6.87     6.60     6.32     6.01     
 5.81     5.64     5.49     5.37     5.26     5.13     5.02     4.90     4.77     4.68     
 4.59     4.50     4.43     4.38     4.33     4.24     4.17     4.10     4.03     3.97     
 3.91     3.86     3.82     3.81     3.82     3.84     3.89     3.96     4.04     4.15     
 4.29     4.44     4.61     4.80     5.00     5.21     5.44     5.67     5.95     6.26     
 6.60     6.94     7.31     7.70     8.14     8.59     9.10     9.59     10.13    10.69    
 11.30    11.96    12.71    13.45    14.29    15.20    16.21    17.25    18.34    19.51    
 20.78    22.19    23.71    25.33    27.05    28.91    30.94    33.11    35.41    37.87    
 40.49    43.32    46.33    49.51    52.94    56.60    60.59    64.87    69.36    74.23    
 79.69    85.56    91.81    98.70    106.20   114.27   123.42   132.57   142.02   152.21   
 162.40   173.03   183.52   194.15   204.87   215.41   225.55   235.17   244.61   253.43   
 261.87   269.91   277.47   284.63   290.52   294.92   298.49   300.62   301.22   300.29   
 297.96   294.42   290.48   285.79   279.87   272.47   263.71   253.72   243.08   231.13   
 221.34   
267472.19 263902.36 260458.36 260065.70 259745.06 242312.48 225766.01 211921.69 189647.03 176486.82 
 157224.06 137730.47 114592.84 104892.45 95339.26 88609.54 81374.57 73695.83 54388.12 41519.05 
 30303.73 22630.08 13862.75 7495.36  1155.08  743.09   394.74   46.38    30.98    25.36    
 22.35    19.41    17.84    16.54    14.88    13.07    11.78    10.66    9.81     9.17     
 8.71     8.48     8.22     7.83     7.40     7.08     6.79     6.44     6.17     5.95     
 5.86     5.64     5.49     5.24     5.24     5.06     4.97     4.89     4.82     4.78     
 4.76     4.76     4.71     4.69     4.69     4.68     4.67     4.66     4.65     4.64     
 4.61     4.58     4.53     4.47     4.42     4.35     4.28     4.21     4.16     4.12     
 4.08     4.06     4.04     4.02     4.00     4.00     4.01     4.08     4.18     4.32     
 4.45     4.60     4.76     4.94     5.12     5.33     5.55     5.80     6.08     6.40     
 6.74     7.10     7.48     7.89     8.33     8.79     9.28     9.78     10.30    10.91    
 11.55    12.25    13.01    13.83    14.71    15.66    16.65    17.74    18.92    20.19    
 21.52    22.94    24.48    26.13    27.89    29.78    31.86    34.14    36.55    39.10    
 41.84    44.81    48.01    51.34    54.89    58.69    62.82    67.27    72.01    77.12    
 82.55    88.50    95.09    102.21   109.87   118.14   126.99   136.15   145.78   156.07   
 166.62   177.31   187.85   198.49   209.33   220.00   229.92   239.85   249.78   258.66   
 266.74   274.26   281.19   288.00   293.73   298.24   301.36   303.21   303.75   302.76   
 299.90   295.94   291.62   286.53   280.99   273.77   265.48   256.20   246.08   234.52   
 221.34   
