IESNA:LM-63-2002
[TEST] 1
[TESTLAB] AOK
[TESTDATE] 2022-05-17
[ISSUEDATE] 2022-05-17 13:29:07
[NEARFIELD] 
[LAMPPOSITION] 0,0
[OTHER] EVERFINE GO-2000A_V1 SYSTEM
[MANUFAC] AOK
[LUMCAT] A
[LUMINAIRE] AOK-800WiSF-HV-S5-00-5070-3585D-P
[LAMPCAT] B
[LAMP] 5050
[BALLAST] E
[BALLASTCAT] F
[OTHER] 
[OTHER] Gamma(deg)    Fz(lm)      Ft(lm)     %Lum    %Lamp
[OTHER]   0- 10      8417.33     8417.33     7.58     7.58
[OTHER]  10- 20     19134.74    27552.06    24.81    24.81
[OTHER]  20- 30     21904.79    49456.85    44.53    44.53
[OTHER]  30- 40     20827.23    70284.08    63.28    63.28
[OTHER]  40- 50     16891.28    87175.36    78.49    78.49
[OTHER]  50- 60     11983.57    99158.94    89.28    89.28
[OTHER]  60- 70      6837.62   105996.55    95.44    95.44
[OTHER]  70- 80      3056.18   109052.73    98.19    98.19
[OTHER]  80- 90      1067.02   110119.75    99.15    99.15
[OTHER]  90-100       375.64   110495.39    99.49    99.49
[OTHER] 100-110       164.37   110659.76    99.64    99.64
[OTHER] 110-120       111.62   110771.38    99.74    99.74
[OTHER] 120-130        86.00   110857.39    99.82    99.82
[OTHER] 130-140        68.14   110925.53    99.88    99.88
[OTHER] 140-150        53.56   110979.09    99.93    99.93
[OTHER] 150-160        40.32   111019.41    99.96    99.96
[OTHER] 160-170        29.51   111048.92    99.99    99.99
[OTHER] 170-180        10.82   111059.74   100.00   100.00
[OTHER] 
TILT=NONE
1 1.1106e+005 1 181 25 1 2 0.150 0.200 0.000
1.000 1 797.617
0.0    1.0    2.0    3.0    4.0    5.0    6.0    7.0    8.0    9.0    
 10.0   11.0   12.0   13.0   14.0   15.0   16.0   17.0   18.0   19.0   
 20.0   21.0   22.0   23.0   24.0   25.0   26.0   27.0   28.0   29.0   
 30.0   31.0   32.0   33.0   34.0   35.0   36.0   37.0   38.0   39.0   
 40.0   41.0   42.0   43.0   44.0   45.0   46.0   47.0   48.0   49.0   
 50.0   51.0   52.0   53.0   54.0   55.0   56.0   57.0   58.0   59.0   
 60.0   61.0   62.0   63.0   64.0   65.0   66.0   67.0   68.0   69.0   
 70.0   71.0   72.0   73.0   74.0   75.0   76.0   77.0   78.0   79.0   
 80.0   81.0   82.0   83.0   84.0   85.0   86.0   87.0   88.0   89.0   
 90.0   91.0   92.0   93.0   94.0   95.0   96.0   97.0   98.0   99.0   
 100.0  101.0  102.0  103.0  104.0  105.0  106.0  107.0  108.0  109.0  
 110.0  111.0  112.0  113.0  114.0  115.0  116.0  117.0  118.0  119.0  
 120.0  121.0  122.0  123.0  124.0  125.0  126.0  127.0  128.0  129.0  
 130.0  131.0  132.0  133.0  134.0  135.0  136.0  137.0  138.0  139.0  
 140.0  141.0  142.0  143.0  144.0  145.0  146.0  147.0  148.0  149.0  
 150.0  151.0  152.0  153.0  154.0  155.0  156.0  157.0  158.0  159.0  
 160.0  161.0  162.0  163.0  164.0  165.0  166.0  167.0  168.0  169.0  
 170.0  171.0  172.0  173.0  174.0  175.0  176.0  177.0  178.0  179.0  
 180.0  
0.0    15.0   30.0   45.0   60.0   75.0   90.0   105.0  120.0  135.0  
 150.0  165.0  180.0  195.0  210.0  225.0  240.0  255.0  270.0  285.0  
 300.0  315.0  330.0  345.0  360.0  
91903.34 89566.14 88343.94 83191.85 76137.60 70420.62 61951.42 55513.51 48036.16 40930.01 
 32636.05 28143.98 25744.55 23617.76 21838.68 20237.81 15620.38 13076.78 10308.65 7537.38  
 5174.45  3584.61  1871.23  998.98   136.20   81.90    36.28    25.10    20.16    17.03    
 15.01    13.41    12.04    10.93    10.15    9.53     8.94     8.42     7.90     7.42     
 7.05     6.74     6.48     6.32     6.11     5.98     5.79     5.65     5.51     5.36     
 5.13     4.93     4.85     4.81     4.76     4.63     4.45     4.24     4.10     4.00     
 3.90     3.86     3.82     3.78     3.74     3.73     3.71     3.71     3.69     3.67     
 3.67     3.66     3.66     3.66     3.65     3.65     3.65     3.69     3.76     3.82     
 3.92     4.03     4.16     4.29     4.43     4.59     4.78     5.00     5.25     5.52     
 5.84     6.16     6.52     6.89     7.30     7.74     8.22     8.71     9.28     9.89     
 10.56    11.26    12.02    12.82    13.67    14.56    15.50    16.47    17.51    18.59    
 19.73    20.92    22.14    23.39    24.70    26.05    27.44    28.85    30.36    31.97    
 33.67    35.44    37.37    39.36    41.46    43.55    45.86    48.25    50.71    53.24    
 55.83    58.49    61.23    64.03    66.83    69.66    72.53    75.52    78.56    81.64    
 84.84    88.27    91.92    95.60    99.43    103.37   107.53   111.73   116.08   120.66   
 125.38   130.04   134.52   138.91   143.39   147.51   151.18   154.37   157.27   159.79   
 161.86   163.63   165.09   165.99   166.18   165.81   164.73   163.06   160.76   157.98   
 154.77   150.88   146.76   142.46   137.98   132.87   127.42   121.78   116.27   110.68   
 103.93   
91903.34 88719.28 87492.57 85830.63 76324.28 71209.30 65259.39 57894.33 51276.36 44449.67 
 38275.39 29979.27 26481.29 24244.95 22013.82 20345.79 18669.69 14308.59 11884.68 9296.44  
 6996.63  4808.52  3386.56  1964.59  553.60   405.80   258.00   111.42   94.65    74.73    
 52.98    48.46    40.03    35.26    36.19    30.89    22.81    18.75    15.71    13.92    
 12.86    11.98    11.09    10.33    9.69     9.05     8.40     7.67     7.33     7.08     
 6.81     6.60     6.41     6.19     5.99     5.84     5.67     5.47     5.30     5.13     
 5.05     5.05     5.03     4.95     4.84     4.69     4.53     4.40     4.28     4.17     
 4.07     3.98     3.92     3.86     3.85     3.85     3.86     3.87     3.88     3.94     
 4.00     4.09     4.21     4.36     4.53     4.71     4.91     5.15     5.41     5.69     
 6.00     6.33     6.70     7.10     7.56     8.04     8.55     9.11     9.71     10.39    
 11.11    11.84    12.61    13.43    14.30    15.27    16.26    17.26    18.30    19.42    
 20.58    21.80    23.02    24.23    25.57    26.97    28.46    30.03    31.61    33.27    
 35.03    36.96    38.95    41.00    43.06    45.23    47.48    49.83    52.21    54.63    
 57.07    59.58    62.11    64.67    67.22    69.85    72.60    75.42    78.28    81.33    
 84.61    88.01    91.51    95.20    98.98    102.93   106.96   111.12   115.37   119.78   
 124.28   128.70   132.96   137.19   141.21   144.84   148.18   151.28   154.15   156.71   
 158.79   160.53   161.73   162.21   161.35   160.54   159.23   157.45   155.32   152.91   
 150.13   147.17   143.86   140.20   136.36   132.15   127.50   122.67   117.72   112.76   
 103.93   
91903.34 89075.10 86681.86 85566.53 80242.83 74524.75 68713.77 63037.70 56360.27 50067.29 
 44257.47 37990.25 31204.04 26486.84 24007.70 22003.97 20111.38 18568.33 16917.00 12939.53 
 10726.86 8535.68  6344.49  4641.60  3576.72  2393.27  1693.34  998.49   303.64   210.16   
 153.49   124.85   104.09   83.43    65.15    57.92    50.13    42.32    38.35    35.58    
 31.60    28.49    25.29    23.20    21.30    19.56    17.84    16.24    14.88    13.37    
 11.93    10.52    9.30     9.00     9.38     9.53     9.27     8.82     8.31     7.83     
 7.36     6.98     6.64     6.34     6.08     5.86     5.67     5.49     5.31     5.12     
 4.98     4.85     4.73     4.60     4.48     4.38     4.30     4.24     4.21     4.20     
 4.24     4.36     4.56     4.76     5.00     5.26     5.54     5.86     6.21     6.59     
 7.02     7.48     7.98     8.52     9.14     9.77     10.47    11.20    11.99    12.83    
 13.69    14.60    15.57    16.56    17.61    18.71    19.84    21.04    22.25    23.54    
 24.86    26.26    27.70    29.21    30.77    32.40    34.07    35.80    37.58    39.42    
 41.28    43.18    45.16    47.14    49.14    51.15    53.27    55.43    57.61    59.83    
 62.13    64.51    67.04    69.69    72.43    75.24    78.23    81.39    84.65    87.95    
 91.30    94.80    98.45    102.17   105.99   109.93   114.00   118.01   121.90   125.84   
 129.71   133.38   136.84   140.12   143.40   146.31   148.94   151.27   153.35   155.25   
 156.74   157.66   158.17   158.23   157.82   157.05   155.94   154.45   153.22   151.44   
 149.25   146.78   143.92   141.04   137.75   134.09   130.14   126.04   122.23   118.07   
 103.93   
91903.34 89203.45 86683.51 85237.55 84248.81 79911.51 73362.76 69541.66 65155.48 59190.07 
 54267.29 49226.12 43479.23 39096.54 34662.56 28438.48 25980.16 23521.84 21069.62 19228.82 
 17571.02 15963.90 14532.72 11310.60 9534.13  7733.96  5841.47  4928.10  3654.18  2772.42  
 1890.19  946.57   580.43   404.10   329.57   255.04   180.96   157.10   132.43   113.44   
 94.82    82.54    71.93    62.42    54.27    48.03    42.43    37.13    33.83    31.00    
 27.96    23.80    19.80    16.74    14.87    13.72    13.55    13.02    12.42    11.62    
 10.90    10.23    9.59     9.03     8.59     8.22     7.86     7.49     7.18     6.89     
 6.63     6.35     6.07     5.80     5.53     5.27     5.05     4.88     4.77     4.74     
 4.78     4.95     5.22     5.53     5.87     6.25     6.67     7.14     7.63     8.15     
 8.71     9.30     9.91     10.58    11.33    12.09    12.90    13.75    14.68    15.65    
 16.63    17.64    18.76    19.92    21.15    22.38    23.65    25.00    26.41    27.84    
 29.33    30.88    32.50    34.11    35.77    37.51    39.35    41.19    43.03    44.93    
 46.94    49.04    51.25    53.43    55.66    57.97    60.39    62.94    65.54    68.23    
 70.95    73.75    76.68    79.63    82.59    85.65    88.84    92.02    95.12    98.35    
 101.74   105.05   108.33   111.58   114.80   118.05   121.16   124.23   127.19   130.07   
 132.91   135.63   138.20   140.71   143.05   145.28   147.22   148.79   150.12   151.10   
 151.90   152.45   152.81   152.85   152.60   152.17   151.51   150.62   149.56   148.32   
 146.77   145.09   143.66   141.02   138.17   135.43   132.38   129.30   126.40   123.22   
 103.93   
91903.34 89753.01 87426.76 85996.88 84897.96 83229.76 81926.03 77763.16 72598.29 69664.34 
 65681.93 62333.02 58538.75 54143.36 50949.37 47659.83 43153.59 39557.72 36406.42 32692.30 
 29102.70 25251.67 22596.76 20667.58 18951.52 17253.20 15744.79 14281.07 12798.37 11473.85 
 9823.49  8169.10  6779.64  5495.26  4379.94  3679.63  2985.84  2383.54  1833.56  1337.44  
 1047.80  760.75   473.70   360.73   286.59   224.74   179.51   144.97   125.24   105.66   
 86.09    74.36    62.97    55.38    47.61    41.29    37.35    33.61    29.44    26.75    
 23.30    19.72    16.77    15.90    15.13    14.05    12.96    12.06    11.09    10.36    
 9.86     9.25     8.75     8.36     7.95     7.49     7.04     6.62     6.27     6.04     
 5.95     6.10     6.45     6.84     7.27     7.72     8.21     8.74     9.32     9.94     
 10.63    11.36    12.14    12.98    13.87    14.81    15.79    16.85    17.96    19.15    
 20.39    21.67    23.03    24.43    25.91    27.44    29.02    30.66    32.37    34.13    
 35.94    37.85    39.82    41.79    43.87    45.99    48.19    50.40    52.73    55.10    
 57.53    60.02    62.58    65.17    67.82    70.49    73.25    76.07    78.89    81.72    
 84.61    87.57    90.50    93.39    96.25    99.13    102.07   104.95   107.82   110.66   
 113.48   116.30   119.11   121.84   124.47   126.99   129.46   131.83   134.03   135.93   
 137.68   139.28   140.89   142.13   143.45   144.62   145.67   146.54   147.32   148.09   
 148.74   149.33   149.86   150.19   150.34   150.35   150.05   149.48   148.83   148.02   
 147.23   145.80   144.33   142.80   140.96   139.00   137.14   135.14   132.89   130.48   
 103.93   
91903.34 90868.19 88855.61 87498.16 86262.08 84770.09 83609.29 81921.18 80845.88 79155.32 
 77946.68 76447.68 74956.65 72575.45 69772.72 67003.08 64051.99 61952.48 59538.49 57377.34 
 54643.20 52239.53 49978.96 47221.21 44741.09 42133.98 39611.10 37409.09 34777.73 32536.62 
 29879.90 27547.07 25442.29 23337.51 21235.02 19405.78 17483.58 15702.12 14169.90 12784.68 
 11479.48 10378.37 9230.48  8217.16  7185.05  6256.80  5402.85  4608.12  3812.08  3173.45  
 2534.82  1898.76  1525.16  1229.09  1009.29  825.87   670.33   539.23   419.86   322.20   
 257.50   193.02   150.78   120.00   95.56    76.98    62.15    50.54    40.33    34.74    
 29.35    24.07    19.59    18.56    16.69    14.87    13.24    11.93    10.60    8.91     
 7.01     5.91     5.99     6.33     6.70     7.12     7.60     8.10     8.62     9.19     
 9.81     10.46    11.17    11.94    12.79    13.67    14.62    15.61    16.68    17.81    
 18.97    20.20    21.52    22.97    24.46    25.99    27.59    29.28    31.04    32.85    
 34.73    36.69    38.76    40.81    42.96    45.21    47.53    49.91    52.24    54.67    
 57.19    59.83    62.58    65.37    68.08    70.84    73.75    76.66    79.56    82.54    
 85.40    88.39    91.30    94.24    96.98    99.80    102.66   105.35   108.00   110.29   
 111.94   114.17   116.62   119.01   121.36   123.69   125.88   127.96   129.93   131.80   
 133.60   135.36   136.96   138.51   140.02   141.40   142.74   143.95   145.09   146.15   
 147.15   148.19   149.19   150.02   150.69   151.13   151.35   151.34   151.22   150.98   
 150.59   150.02   149.36   148.68   147.71   146.35   144.97   143.52   141.82   140.07   
 103.93   
91903.34 91950.07 91123.82 90621.91 90127.15 89233.24 88406.34 87191.10 86553.69 85188.59 
 84152.15 83490.23 82287.14 81389.21 80217.68 78927.92 77793.78 76946.00 75648.99 74242.62 
 72720.48 71604.00 70202.91 68782.44 67064.44 65581.63 63679.70 62198.05 60401.97 58410.20 
 56438.74 54367.78 52491.27 50440.12 48536.98 46613.72 44330.67 42096.14 40240.59 38618.17 
 36763.45 34881.36 32951.22 31134.18 29400.14 27564.03 25914.35 24264.68 22615.21 20984.52 
 19494.56 18104.25 16771.26 15420.24 14166.08 12930.96 11843.00 10806.89 9797.41  8880.53  
 8075.03  7287.94  6515.82  5837.36  5193.38  4620.01  4090.21  3607.82  3153.30  2758.90  
 2365.40  2048.60  1754.97  1488.22  1245.81  1022.52  822.63   660.08   516.71   388.47   
 299.52   210.57   122.05   69.49    23.02    6.00     4.53     4.04     3.94     3.83     
 3.67     3.20     2.89     2.94     3.00     3.10     3.22     3.38     3.55     3.74     
 3.94     4.14     4.36     4.58     4.81     5.06     5.32     5.61     5.90     6.21     
 6.55     6.91     7.31     7.73     8.17     8.66     9.17     9.69     10.23    10.80    
 11.41    12.03    12.68    13.36    14.05    14.79    15.57    16.35    17.17    18.04    
 18.93    19.84    20.78    21.75    22.74    23.77    24.85    26.00    27.16    28.38    
 29.65    30.96    32.37    33.85    35.40    37.05    38.74    40.43    42.11    43.89    
 45.74    47.66    49.67    51.80    54.01    56.35    58.84    61.60    64.38    67.33    
 70.43    73.76    77.22    80.83    84.39    88.11    91.44    94.93    98.32    101.67   
 104.92   108.20   111.33   114.29   116.97   119.34   121.56   123.76   125.65   127.48   
 103.93   
91903.34 92674.73 92604.60 93250.59 93773.68 94242.30 94379.14 94616.93 94887.81 95207.13 
 95173.83 95490.54 95617.62 95743.09 95936.84 95637.04 95290.24 94789.87 94231.85 93340.50 
 92409.91 91422.83 90098.18 88690.33 87101.15 85390.01 83457.02 81263.15 78680.67 76198.55 
 73601.17 70942.54 68503.96 66151.65 63836.18 61701.66 59424.09 56940.53 54746.58 52793.29 
 50850.43 48831.46 46964.15 44917.76 42897.82 41022.60 39076.36 37149.60 35383.64 33626.98 
 31750.93 30141.44 28510.54 26919.50 25397.03 23863.14 22509.72 21202.02 19954.90 18640.01 
 17437.05 16266.26 15124.59 14035.31 13042.77 11954.88 11050.45 10147.67 9377.21  8563.51  
 7831.26  7107.41  6456.66  5842.47  5332.26  4838.50  4385.55  3950.05  3553.34  3208.24  
 2899.39  2617.29  2348.03  2112.49  1885.50  1690.70  1510.43  1364.05  1226.11  1095.51  
 964.98   848.68   746.83   656.09   576.18   507.86   448.44   399.92   356.67   318.50   
 285.41   257.45   233.47   212.38   193.15   175.20   159.46   145.74   133.10   122.42   
 111.76   103.86   95.89    86.43    75.40    63.07    49.96    38.16    31.04    22.63    
 11.48    8.01     7.85     8.34     8.85     9.43     10.06    10.67    11.35    12.08    
 12.82    13.55    14.38    15.26    16.17    17.09    18.17    19.55    20.18    20.69    
 21.56    22.46    23.31    24.15    25.07    25.86    26.60    27.70    29.29    30.84    
 32.24    33.60    34.35    35.62    37.32    39.05    40.98    43.07    45.31    47.76    
 50.41    53.33    56.40    59.87    63.54    67.76    71.64    74.97    78.73    82.65    
 86.51    90.36    94.22    97.80    101.31   104.77   108.22   111.58   114.79   117.98   
 103.93   
91903.34 93314.19 94793.89 96342.30 98277.91 100112.35 101855.72 103356.94 104700.07 106190.40 
 107218.89 107800.45 107835.50 107378.10 106250.79 104352.50 101618.47 98972.72 96665.08 94509.80 
 92208.01 89876.81 87424.10 85223.31 82973.55 80995.30 78942.46 77011.20 74872.51 72796.68 
 70941.22 69016.09 67045.70 64966.52 62838.22 60618.30 58447.25 56345.29 54325.82 52174.88 
 50077.96 48138.79 46243.93 44490.59 42844.28 41088.01 39535.06 37890.58 36298.83 34763.68 
 33273.30 31844.07 30501.59 29059.39 27653.49 26261.46 25039.64 23815.21 22359.74 21002.31 
 19765.36 18756.69 17695.31 16671.22 15707.00 14670.81 13651.93 12655.25 11682.51 10779.66 
 9878.85  9013.82  8187.35  7360.51  6537.91  5826.01  5200.79  4612.80  4085.64  3584.06  
 3190.38  2890.23  2590.09  2290.70  2053.66  1842.45  1670.13  1528.51  1402.75  1265.93  
 1133.94  1008.30  898.06   804.68   724.07   655.94   596.34   545.12   500.41   460.71   
 426.76   398.31   372.93   351.91   333.23   316.84   302.04   288.58   277.23   267.40   
 258.16   249.61   241.05   232.50   225.00   218.08   211.73   205.58   199.69   193.34   
 187.06   180.86   174.66   168.43   160.95   152.29   142.98   133.62   124.05   113.63   
 102.31   90.25    75.92    52.59    34.81    26.96    22.61    19.55    13.30    10.27    
 10.86    11.65    12.45    13.31    14.18    15.12    16.09    17.07    18.10    19.18    
 20.36    21.63    22.79    24.30    28.34    34.70    28.17    29.18    30.84    32.73    
 34.95    37.46    40.44    43.73    47.15    50.60    53.92    57.69    61.61    65.75    
 69.92    74.25    78.54    82.82    87.16    91.43    95.74    100.13   104.51   108.95   
 103.93   
91903.34 94402.76 97108.61 99615.59 102774.72 105618.16 108450.97 110987.52 112528.35 112998.69 
 112566.15 109874.05 106870.01 104512.88 101808.20 99409.55 96975.76 94835.15 92817.54 90656.98 
 88318.87 85991.15 83383.12 80660.44 77760.45 74959.26 72363.38 69916.13 67623.36 65600.24 
 63867.97 62314.61 61107.30 59963.17 59015.92 57930.05 56822.99 55763.88 54484.02 52986.98 
 51379.73 49611.31 47969.48 46444.98 44993.63 43398.67 41409.73 39477.65 37766.60 35989.08 
 34287.90 32690.69 31126.52 29566.66 28078.92 26571.82 25188.73 23834.76 22473.02 21023.00 
 19680.57 18366.61 17137.31 15864.83 14591.92 13447.15 12343.60 11125.52 9906.43  8840.88  
 7957.86  7234.02  6530.38  5862.69  5264.73  4641.08  4109.31  3670.56  3284.21  2932.44  
 2630.11  2357.86  2102.11  1871.51  1681.43  1516.51  1379.83  1256.40  1155.85  1055.50  
 955.16   856.31   771.60   697.82   634.84   580.59   534.99   496.59   464.25   435.81   
 411.74   391.33   373.32   357.81   343.38   330.36   319.13   308.76   299.31   290.22   
 281.92   274.46   268.36   261.75   255.53   249.71   244.50   239.26   233.88   228.42   
 223.60   218.36   212.23   205.54   199.44   192.92   186.70   180.70   174.76   168.81   
 162.94   157.51   152.57   147.32   141.81   136.47   130.22   121.71   113.19   102.43   
 91.48    82.29    71.75    46.18    21.83    17.59    15.17    13.59    12.13    12.19    
 13.17    14.19    15.29    16.48    17.74    18.98    20.34    21.85    23.62    25.77    
 28.43    36.15    37.35    34.26    36.81    39.81    43.07    46.63    50.35    54.31    
 58.47    62.79    67.24    71.56    76.05    80.70    85.68    90.90    96.09    101.57   
 103.93   
91903.34 94971.76 98843.23 102699.84 106312.99 109936.25 113067.76 114861.28 115617.83 113513.91 
 110420.50 107910.92 105407.92 102786.07 100600.98 98520.35 96156.83 93512.66 90449.77 86792.23 
 83327.35 80112.81 77121.23 74415.73 72270.87 70579.41 69395.28 68544.05 67483.67 66297.58 
 64954.23 63488.06 62099.78 60512.61 58649.44 56415.30 54244.91 52058.64 49878.50 47548.08 
 45333.65 43139.47 41178.41 39509.75 37881.57 36298.30 34799.04 33307.74 31812.92 30358.51 
 28944.48 27565.83 26143.31 24723.34 23303.74 21919.87 20544.15 19283.38 18046.42 16837.45 
 15667.54 14578.89 13381.05 12096.19 11001.23 10107.35 9299.17  8543.38  7834.56  7194.11  
 6581.53  6031.48  5494.51  4870.78  4430.47  4031.03  3646.15  3283.20  2924.76  2645.86  
 2367.20  2110.29  1874.48  1675.97  1497.88  1343.50  1216.62  1105.44  1013.42  937.41   
 860.84   776.62   698.80   631.16   573.55   525.95   485.07   448.61   417.47   390.67   
 369.85   353.30   340.04   328.06   317.40   308.33   300.30   292.24   285.28   279.21   
 272.86   266.33   260.34   254.78   249.16   242.01   234.86   228.25   221.66   215.26   
 209.93   204.82   200.06   195.74   191.53   187.63   183.57   179.56   175.56   171.59   
 167.78   163.88   159.80   155.78   151.84   147.64   142.95   138.02   131.87   124.82   
 117.46   108.17   100.69   98.19    93.70    87.13    86.69    82.73    72.98    36.29    
 19.78    17.19    15.71    13.84    14.23    15.65    17.10    18.61    20.28    22.10    
 23.97    25.94    28.04    30.61    36.87    44.40    37.63    40.93    44.44    48.31    
 52.23    56.41    60.77    65.10    69.42    74.05    79.12    84.68    90.54    96.79    
 103.93   
91903.34 95915.01 100212.53 104898.65 109444.34 113539.37 115996.42 116890.49 114376.96 111250.81 
 108656.59 106194.50 104024.15 102031.45 99570.15 96722.65 93248.06 89421.53 85591.53 82099.60 
 79219.51 76822.50 74899.41 73489.98 72351.65 71159.74 69831.92 68443.10 66998.37 65302.60 
 63206.70 60840.52 58237.11 55774.87 53353.68 51092.10 48724.31 46272.00 43933.00 41588.50 
 39347.30 37290.05 35608.44 34363.98 33306.51 32322.30 31271.02 30179.35 29071.43 27871.73 
 26587.18 25242.84 23961.56 22653.03 21403.93 20147.41 18990.33 17846.05 16749.65 15490.33 
 14122.15 12899.95 11981.60 11145.24 10309.64 9514.02  8812.35  8158.32  7566.04  6990.02  
 6429.07  5746.27  5231.58  4770.75  4363.65  3982.87  3615.64  3225.54  2893.74  2608.46  
 2351.42  2122.87  1900.61  1699.54  1523.47  1371.43  1238.98  1130.99  1023.22  940.49   
 865.98   785.32   701.39   625.96   558.68   501.49   454.42   415.87   384.69   356.27   
 332.05   312.81   299.01   288.25   279.12   271.05   263.66   257.17   251.42   245.90   
 240.51   235.25   230.42   225.17   220.56   215.70   211.18   206.51   201.82   196.74   
 191.83   187.62   182.89   178.85   175.00   171.45   167.81   164.35   161.20   158.04   
 154.67   151.25   147.66   144.33   140.91   137.58   128.95   125.26   121.62   119.15   
 116.48   113.47   110.44   107.42   104.31   101.66   99.01    95.05    88.76    85.51    
 81.01    61.88    16.77    14.50    13.41    14.31    15.65    17.23    19.08    20.99    
 23.22    25.70    28.20    30.72    33.42    37.21    51.51    41.02    44.03    47.67    
 51.58    55.72    60.04    64.40    68.71    73.41    78.45    84.01    89.77    95.89    
 103.93   
91903.34 96114.41 100594.13 105345.81 109973.28 114134.77 116450.75 116780.97 113808.30 110922.25 
 108367.72 106036.12 104142.27 102045.10 99493.14 96331.72 92553.29 88517.75 84822.47 81740.53 
 79004.53 76777.70 75434.39 74388.17 73319.13 71987.57 70566.34 68932.71 67089.98 64985.52 
 62529.32 59853.43 57298.12 54890.69 52589.98 50259.32 47733.25 45100.35 42482.14 40098.35 
 38104.50 36585.13 35401.24 34447.81 33529.70 32579.58 31601.17 30574.15 29454.94 28243.81 
 26965.32 25682.49 24369.23 23056.45 21789.86 20541.30 19361.88 18183.16 16994.50 15708.46 
 14306.89 13119.53 12245.71 11411.23 10610.15 9841.89  9114.07  8446.37  7836.78  7284.65  
 6730.70  6058.32  5523.02  5036.39  4622.63  4227.69  3842.10  3453.25  3099.88  2829.54  
 2559.19  2289.33  2060.86  1842.58  1645.10  1466.78  1320.69  1192.67  1077.77  980.36   
 899.35   826.62   743.06   658.57   582.88   516.87   461.12   414.37   374.48   341.94   
 313.44   290.83   273.05   261.35   251.50   244.60   237.69   230.81   225.81   221.28   
 216.93   212.84   208.78   205.02   201.22   197.59   194.34   191.04   187.88   184.68   
 181.54   177.96   175.17   172.57   169.89   167.09   164.39   161.64   159.11   156.39   
 153.99   151.21   148.34   145.49   142.34   139.42   136.22   131.40   124.45   122.08   
 119.61   117.79   115.60   112.83   110.06   107.37   104.93   102.50   99.95    97.50    
 94.64    89.59    64.73    18.55    16.89    16.05    15.81    17.32    19.59    21.72    
 24.18    26.86    29.63    32.60    35.73    39.53    51.46    47.87    46.95    50.52    
 54.44    58.52    62.77    67.19    71.35    75.74    80.57    85.91    91.74    97.86    
 103.93   
91903.34 95918.35 100261.17 104543.92 108747.84 112334.09 114194.22 114020.22 110976.31 108281.18 
 106109.78 103962.56 102089.50 100242.21 97940.86 95103.24 91663.68 87909.42 84425.71 81273.07 
 78631.95 76261.52 74785.57 73720.49 72811.48 71715.76 70422.72 69088.72 67551.50 65758.19 
 63692.64 61303.85 58771.28 56319.61 54064.33 51889.01 49671.26 47226.01 44754.41 42385.30 
 40138.40 38095.97 36395.69 35109.27 34069.12 33105.47 32126.80 31148.00 30110.46 28990.19 
 27778.57 26539.55 25304.17 24029.72 22711.89 21487.55 20275.79 19138.50 17962.67 16825.69 
 15634.18 14308.74 13080.32 12071.77 11258.64 10447.33 9636.02  8923.37  8250.07  7642.96  
 7078.48  6560.78  5969.20  5367.14  4890.98  4478.28  4090.75  3702.65  3330.81  2982.92  
 2705.46  2442.08  2186.75  1961.09  1759.60  1576.96  1409.58  1269.29  1161.58  1054.17  
 946.75   872.94   800.18   718.66   641.30   569.82   510.60   462.89   422.29   387.56   
 357.62   333.36   313.68   300.06   288.20   279.18   271.61   265.18   259.53   254.01   
 248.93   244.48   240.26   235.87   231.90   228.07   224.66   221.48   217.91   213.86   
 209.17   204.99   200.60   196.25   192.02   187.93   183.63   179.23   175.28   171.10   
 167.22   163.64   159.43   154.61   148.93   142.90   135.80   127.97   126.54   125.16   
 128.48   128.73   126.51   123.64   120.11   116.81   113.06   107.78   100.06   94.44    
 88.03    64.65    27.45    22.83    20.23    18.09    18.79    21.25    23.86    26.62    
 29.55    32.63    35.83    39.25    43.00    50.20    56.46    51.57    54.50    57.95    
 61.48    65.33    69.46    73.35    77.18    81.38    85.89    90.85    95.94    101.38   
 103.93   
91903.34 95344.37 98942.79 102692.27 106385.89 109949.38 112406.54 113723.71 113097.04 110308.53 
 108037.35 106433.69 104645.52 103060.27 101522.56 99722.83 97474.96 94822.44 91515.19 87761.52 
 84195.46 80925.66 78049.50 75570.62 73469.46 72071.27 70904.32 69883.28 68710.24 67504.42 
 66166.75 64877.42 63341.12 61650.51 59731.95 57617.84 55417.91 53199.72 51083.04 48996.86 
 46865.00 44807.87 42673.34 40753.52 38882.83 37234.98 35674.48 34267.76 33036.68 31856.34 
 30693.15 29656.56 28487.88 27320.97 26018.92 24761.24 23503.56 22245.54 20958.36 19717.59 
 18533.81 17335.21 16150.16 15040.65 13953.03 12791.54 11609.47 10609.41 9794.62  9033.98  
 8352.09  7659.26  7042.12  6489.44  5954.50  5388.82  4788.50  4347.01  3953.91  3582.31  
 3228.01  2869.61  2599.33  2329.34  2083.06  1850.89  1656.63  1481.84  1338.22  1210.73  
 1097.48  1000.86  924.45   847.64   765.73   687.48   616.39   555.07   504.17   460.88   
 425.38   395.72   371.98   353.16   337.34   323.96   312.17   301.71   293.00   285.13   
 278.04   271.13   264.82   258.64   253.07   248.13   243.26   237.22   231.18   225.15   
 219.56   213.60   208.16   202.83   198.03   193.66   189.37   184.97   181.12   177.21   
 173.08   169.19   165.51   161.88   157.95   154.21   150.37   146.17   141.94   137.15   
 132.17   126.60   121.29   115.56   108.16   99.71    93.21    86.55    77.29    40.21    
 26.45    22.06    19.59    17.99    20.24    22.81    25.56    28.47    31.67    35.05    
 38.58    42.18    46.07    50.72    59.80    57.13    59.55    62.81    66.17    69.35    
 72.79    76.59    80.19    83.35    86.67    90.59    94.86    99.24    103.77   108.46   
 103.93   
91903.34 94519.42 97223.98 100181.39 103156.28 106254.81 109242.66 111466.60 113187.44 113970.00 
 112558.56 110399.06 108555.05 106186.36 103968.53 101398.88 99510.78 97854.88 96038.60 93763.75 
 91422.61 88654.68 85801.56 82687.98 79537.34 76716.08 74134.08 71796.98 69722.42 67716.28 
 65997.35 64645.27 63695.61 62823.18 61846.73 60915.91 59911.80 58740.29 57671.28 56607.88 
 55265.80 53766.08 52230.03 50585.18 49020.72 47484.11 45866.31 44065.56 42247.83 40449.39 
 38644.36 36973.74 35470.95 34051.09 32570.01 31158.11 29866.99 28666.07 27384.46 26012.98 
 24656.32 23276.37 21989.27 20683.73 19408.99 18072.56 16921.55 15694.68 14474.90 13324.98 
 12249.32 11155.05 10060.65 8966.24  8085.14  7370.61  6683.16  6052.52  5445.17  4852.16  
 4260.46  3817.38  3417.57  3052.12  2709.48  2445.56  2185.55  1953.45  1754.59  1586.68  
 1441.05  1309.75  1202.95  1101.12  999.32   895.43   803.10   723.20   655.58   596.71   
 544.76   502.48   466.41   436.20   410.01   386.14   365.99   348.85   333.43   319.93   
 307.93   297.21   287.17   278.29   269.67   262.15   255.06   248.46   242.10   236.34   
 230.66   225.28   219.65   214.15   209.11   204.20   199.00   193.28   186.95   180.55   
 174.19   168.13   161.77   155.92   149.70   143.59   137.03   131.05   123.34   115.63   
 107.91   96.88    84.44    64.24    35.11    25.92    21.56    19.41    18.72    20.51    
 22.71    25.00    27.43    30.05    32.80    35.61    38.65    41.87    45.22    48.78    
 54.82    58.60    57.94    61.06    64.36    67.77    71.31    74.80    78.06    81.34    
 84.49    87.79    90.56    93.60    96.99    100.60   104.24   107.97   111.68   115.57   
 103.93   
91903.34 93546.19 95145.75 97020.98 99310.62 101654.87 104041.50 106723.27 109213.42 111372.49 
 112332.79 112356.62 112054.58 111328.53 109727.17 107374.10 104899.80 102631.49 100454.61 98474.66 
 96337.09 94090.10 92108.39 89962.34 88001.02 85952.57 84061.72 82089.95 80142.92 78317.95 
 76367.06 74429.85 72457.80 70483.39 68293.56 66222.15 64019.57 62177.93 60116.44 58101.26 
 56079.83 54177.24 52436.10 50701.35 49206.42 47687.65 46116.60 44710.55 43191.32 41911.64 
 40616.32 39304.31 37896.05 36514.31 35093.76 33653.48 32179.93 30848.19 29392.54 27929.70 
 26513.36 25106.46 23838.81 22569.71 21189.72 20020.77 18929.72 17928.39 16948.55 15925.20 
 14871.64 13850.20 12925.49 11993.92 11108.52 10157.91 9281.54  8468.38  7727.68  6903.72  
 6142.74  5471.71  4879.50  4354.98  3852.33  3376.31  3024.61  2747.47  2470.33  2193.87  
 1979.32  1793.16  1636.85  1501.95  1367.08  1221.96  1089.82  971.02   870.11   775.65   
 697.57   630.73   570.78   519.58   476.61   439.80   407.30   378.15   353.30   332.23   
 312.56   294.95   279.47   266.59   255.16   244.74   234.13   223.55   214.91   206.74   
 198.82   191.05   182.98   174.49   165.54   156.69   148.57   140.54   132.77   124.65   
 115.68   105.88   94.53    80.81    64.06    48.00    40.07    34.13    23.49    16.34    
 17.59    19.34    21.18    23.14    25.18    27.38    29.64    31.99    34.41    36.94    
 39.81    42.85    46.07    50.42    55.37    54.29    56.49    58.73    61.49    64.28    
 67.03    69.77    72.52    75.29    78.20    81.21    84.50    87.87    91.02    93.95    
 96.90    99.94    102.99   106.11   109.24   112.30   115.45   118.57   121.62   124.63   
 103.93   
91903.34 92434.50 92946.04 93778.98 94866.28 96153.49 97836.12 99449.15 100639.91 101107.13 
 101370.44 101848.77 102328.95 102538.06 102330.51 102495.52 102365.34 102182.37 101677.95 100926.79 
 100103.69 99152.26 98439.66 97330.40 95830.54 93932.46 92038.98 90057.95 87866.03 85668.14 
 83582.37 81428.03 79195.66 76978.08 74927.09 72718.76 70536.24 68160.22 65963.07 63865.66 
 61769.23 59835.22 57852.49 55776.42 53804.00 51786.05 49779.33 47954.71 46212.91 44409.75 
 42479.62 40609.03 38816.37 36916.15 35096.17 33381.41 31582.42 29984.02 28418.28 26992.24 
 25412.32 23858.71 22463.43 21185.71 19812.43 18612.32 17448.63 16351.05 15161.12 14028.50 
 13051.28 12083.04 11179.57 10276.57 9373.58  8572.38  7838.41  7103.88  6390.52  5792.34  
 5245.76  4753.79  4277.56  3861.51  3459.28  3119.11  2804.63  2514.31  2266.18  2032.16  
 1810.82  1608.43  1433.68  1288.99  1160.64  1037.13  913.65   805.15   708.65   616.58   
 539.16   474.45   419.45   372.05   328.64   291.27   259.86   232.13   208.57   188.13   
 169.62   153.41   140.13   128.49   116.95   105.40   92.93    78.36    62.59    50.81    
 43.93    27.77    13.32    11.65    12.48    13.45    14.55    15.79    16.98    18.29    
 19.65    21.05    22.54    24.18    25.92    27.70    29.56    31.57    33.53    35.12    
 37.02    38.90    40.90    42.91    44.96    47.06    49.34    52.11    54.57    56.25    
 58.72    62.31    64.51    66.21    68.93    70.26    72.54    75.11    77.65    80.24    
 82.80    85.43    88.11    90.71    93.21    95.85    98.63    101.59   104.55   107.76   
 110.97   113.69   116.65   119.66   122.44   125.17   127.92   130.63   133.22   135.68   
 103.93   
91903.34 91298.06 90858.91 90702.08 90740.58 91072.77 91644.70 92067.67 91460.70 90365.09 
 90124.26 89116.87 88188.69 87257.51 86097.93 85260.48 83929.04 83112.65 81799.01 80911.07 
 79760.36 78466.38 77430.93 76262.34 74936.03 73708.15 72361.14 70916.62 69475.17 68149.74 
 66397.79 64680.61 63039.92 61416.14 59504.30 57673.29 55678.97 53642.82 51887.54 49566.76 
 47690.49 45719.94 43320.10 41195.18 39509.84 37673.43 35819.24 33912.79 32222.13 30265.26 
 28450.84 26836.87 25205.43 23661.75 21959.09 20374.59 18895.57 17521.84 16153.29 14840.86 
 13605.17 12409.59 11338.67 10269.33 9321.33  8467.71  7666.71  6867.54  6167.83  5514.71  
 4881.58  4320.96  3785.31  3304.79  2868.74  2492.86  2137.17  1809.30  1517.46  1263.79  
 1041.85  820.26   635.42   481.09   352.30   245.18   158.71   98.23    38.06    9.74     
 7.94     7.89     7.91     8.04     8.22     8.42     8.62     8.68     8.55     8.99     
 9.49     10.04    10.65    11.30    12.02    12.80    13.63    14.47    15.36    16.31    
 17.35    18.43    19.58    20.80    22.09    23.45    24.83    26.29    27.84    29.43    
 31.08    32.80    34.59    36.41    38.29    40.19    42.23    44.28    46.40    48.53    
 50.70    52.95    55.23    57.53    59.80    62.16    64.55    66.93    69.29    71.64    
 73.90    76.43    78.90    81.19    83.50    85.78    88.00    90.22    92.45    94.62    
 96.76    98.88    101.01   103.08   105.10   107.04   108.88   110.66   112.43   114.13   
 115.75   117.29   118.82   120.24   121.57   122.84   124.20   125.46   126.76   127.90   
 128.89   129.76   130.63   131.58   131.97   132.03   131.81   131.49   130.88   130.01   
 103.93   
91903.34 90847.81 89895.54 89278.88 88953.79 88928.67 89239.60 89456.27 87859.14 84288.30 
 81635.04 78715.51 76138.58 74656.72 71737.71 69629.76 67170.98 64932.10 62621.92 59597.52 
 56960.88 54106.80 52195.28 50143.97 47702.46 45157.42 42255.31 39790.27 37739.73 35428.40 
 33095.41 30769.61 28638.72 26265.18 23891.63 21523.19 19748.28 18172.22 16682.70 15273.69 
 13911.53 12765.69 11548.77 10289.59 9252.70  8417.15  7660.48  6706.19  5717.53  4752.36  
 3909.48  3230.75  2712.81  2195.98  1828.21  1540.04  1278.08  1055.11  856.28   699.57   
 564.93   451.05   356.58   295.78   234.97   174.38   141.36   115.56   93.81    77.45    
 65.94    55.22    45.80    40.72    34.77    30.22    25.99    22.47    18.75    14.55    
 13.56    12.80    11.62    10.63    9.71     8.73     7.72     6.76     6.52     6.79     
 7.15     7.55     7.99     8.50     9.03     9.59     10.17    10.81    11.51    12.27    
 13.05    13.86    14.73    15.69    16.70    17.73    18.80    19.95    21.16    22.40    
 23.72    25.14    26.62    28.12    29.67    31.31    33.05    34.87    36.71    38.56    
 40.48    42.50    44.54    46.66    48.79    50.94    53.16    55.51    57.95    60.33    
 62.77    65.30    67.86    70.41    73.01    75.61    78.29    80.93    83.26    85.37    
 87.99    90.82    93.58    96.02    97.68    99.11    101.21   103.48   105.69   107.86   
 110.06   112.21   114.26   116.27   118.19   120.02   121.72   123.25   124.78   126.05   
 127.21   128.25   129.20   130.05   130.83   131.56   132.22   132.90   133.27   133.50   
 133.54   133.46   133.48   132.55   132.10   131.06   129.53   127.82   125.73   123.44   
 103.93   
91903.34 90425.14 89282.89 88521.17 87891.80 83657.09 78910.19 77198.95 74224.45 71130.00 
 66660.53 62066.85 58666.09 54545.17 49734.68 46424.73 42351.40 38531.15 34402.06 29656.62 
 27125.89 25106.39 23393.01 21891.45 20372.19 18960.95 17538.85 16368.47 15037.46 13044.09 
 11323.23 9605.82  7888.41  6581.94  5365.92  4714.38  3681.78  2973.03  2293.17  1587.81  
 1245.01  906.79   568.58   431.61   337.69   275.29   228.07   185.88   156.60   131.04   
 112.66   94.35    78.13    64.27    55.40    49.11    43.77    39.13    34.54    31.79    
 29.16    26.95    25.50    23.90    22.42    20.95    19.28    17.69    15.79    12.87    
 11.54    10.92    10.41    10.07    9.68     9.29     8.96     8.63     8.31     8.00     
 7.70     7.44     7.19     6.98     6.84     6.75     6.74     6.98     7.37     7.78     
 8.23     8.73     9.26     9.86     10.50    11.18    11.93    12.74    13.59    14.48    
 15.43    16.42    17.46    18.56    19.74    20.99    22.28    23.62    24.97    26.39    
 27.88    29.48    31.12    32.75    34.45    36.32    38.22    40.13    42.05    44.09    
 46.23    48.40    50.55    52.78    55.06    57.36    59.68    62.11    64.55    67.06    
 69.57    72.09    74.66    77.34    80.04    82.76    85.54    88.30    91.06    93.80    
 96.55    99.35    102.19   105.00   107.80   110.55   113.28   116.11   118.95   121.58   
 123.99   126.22   128.41   130.45   132.31   133.97   135.50   136.88   138.14   139.25   
 140.18   141.00   141.69   142.40   142.87   142.95   142.89   142.64   142.19   141.44   
 140.29   139.00   137.53   135.54   132.89   130.37   127.69   124.68   121.12   117.25   
 103.93   
91903.34 90129.49 88847.04 87802.82 80804.53 76913.55 72233.34 68280.52 62262.13 58674.89 
 52126.09 47791.39 42149.65 37380.09 30658.39 27818.54 25958.28 24098.02 22242.05 20816.96 
 19376.18 18123.26 13973.47 11981.25 10028.56 7864.03  6534.33  4946.84  3957.32  2651.43  
 1350.51  725.39   457.79   329.29   252.11   175.23   132.14   104.32   83.96    64.42    
 52.20    44.52    38.55    34.49    31.52    29.12    27.10    25.78    24.45    23.23    
 22.32    21.65    20.78    19.80    18.97    17.62    16.45    15.79    15.46    14.99    
 14.16    12.64    11.07    10.29    9.87     9.53     9.22     8.93     8.63     8.37     
 8.13     7.89     7.66     7.45     7.23     7.02     6.83     6.69     6.57     6.48     
 6.39     6.36     6.35     6.36     6.39     6.48     6.68     6.95     7.28     7.66     
 8.06     8.51     9.01     9.54     10.10    10.68    11.32    12.00    12.73    13.53    
 14.35    15.20    16.13    17.13    18.18    19.27    20.42    21.61    22.87    24.15    
 25.52    26.98    28.51    30.03    31.61    33.26    35.01    36.85    38.70    40.54    
 42.44    44.41    46.49    48.57    50.70    52.88    55.17    57.56    60.04    62.61    
 65.22    67.96    70.85    73.71    76.65    79.68    82.87    86.07    89.23    92.53    
 95.99    99.35    102.80   106.26   109.73   113.29   116.72   120.13   123.40   126.61   
 129.71   132.70   135.51   138.31   140.98   143.60   146.02   147.98   149.79   151.24   
 152.31   153.05   153.45   153.75   153.84   153.60   153.17   152.49   151.34   149.83   
 147.83   145.49   142.70   138.89   134.75   130.69   126.37   122.07   117.51   112.37   
 103.93   
91903.34 89991.16 88731.40 83955.54 77642.32 72072.87 66176.73 59262.46 53353.74 47349.58 
 40936.68 34738.79 29034.99 26822.67 24904.34 23296.72 21652.77 20143.62 15830.16 13278.30 
 11058.54 8842.50  6626.45  4736.96  3236.12  1377.54  817.90   271.93   164.12   124.56   
 101.55   78.74    62.69    51.89    49.24    42.65    35.61    34.36    30.05    27.32    
 25.88    22.80    21.81    21.12    19.19    18.68    16.71    15.15    14.13    13.06    
 12.29    11.77    11.26    10.75    10.11    9.36     8.28     7.53     7.13     6.92     
 6.76     6.62     6.52     6.40     6.28     6.18     6.06     5.97     5.85     5.74     
 5.64     5.56     5.48     5.42     5.37     5.31     5.27     5.26     5.27     5.29     
 5.30     5.31     5.33     5.41     5.54     5.71     5.93     6.19     6.47     6.76     
 7.09     7.46     7.87     8.33     8.81     9.32     9.92     10.57    11.25    11.97    
 12.75    13.61    14.49    15.43    16.43    17.52    18.64    19.81    21.01    22.31    
 23.70    25.11    26.54    28.06    29.69    31.38    33.08    34.85    36.73    38.66    
 40.60    42.58    44.63    46.74    48.84    50.93    53.11    55.37    57.65    59.99    
 62.38    64.79    67.32    70.01    72.79    75.69    78.77    81.94    85.22    88.57    
 92.00    95.63    99.38    103.14   107.01   110.93   114.94   119.07   123.24   127.33   
 131.27   135.02   138.65   141.92   145.07   147.95   150.56   152.92   155.20   157.38   
 159.21   160.65   161.72   162.27   162.32   161.83   160.86   159.50   157.86   155.93   
 153.36   150.03   146.39   142.14   137.41   132.18   126.78   121.25   115.81   109.76   
 103.93   
91903.34 89711.31 88424.80 83718.54 76683.47 70348.47 62374.59 57157.02 48506.98 41710.27 
 34933.10 28640.61 26548.12 24455.64 22367.99 20816.64 18941.13 14367.95 11441.05 8461.08  
 7051.20  4786.75  2834.83  895.73   477.73   63.24    43.26    27.51    21.65    18.21    
 16.38    14.74    13.67    12.88    12.06    11.51    11.01    10.57    10.01    9.57     
 9.21     8.79     8.35     7.96     7.68     7.36     7.12     6.92     6.74     6.57     
 6.34     6.03     5.75     5.45     5.31     5.23     5.17     5.16     5.15     5.07     
 4.97     4.81     4.66     4.52     4.38     4.28     4.19     4.09     4.00     3.93     
 3.85     3.81     3.80     3.80     3.81     3.82     3.85     3.89     3.94     4.00     
 4.06     4.14     4.24     4.36     4.49     4.65     4.84     5.04     5.26     5.51     
 5.78     6.07     6.39     6.76     7.15     7.57     8.06     8.58     9.13     9.75     
 10.43    11.12    11.85    12.64    13.51    14.39    15.35    16.36    17.41    18.49    
 19.65    20.88    22.16    23.43    24.77    26.21    27.74    29.35    31.01    32.69    
 34.48    36.40    38.44    40.52    42.63    44.82    47.11    49.50    51.93    54.40    
 56.89    59.46    62.12    64.77    67.44    70.19    73.10    76.06    79.05    82.17    
 85.64    89.10    92.77    96.57    100.48   104.66   108.79   113.16   117.60   122.19   
 126.89   131.34   135.68   140.05   144.11   147.96   151.50   154.60   157.51   160.06   
 162.28   164.21   165.74   166.75   167.08   166.84   166.03   164.59   162.59   160.11   
 157.32   153.97   149.98   145.31   140.18   134.29   128.03   121.46   115.26   109.04   
 103.93   
91903.34 89566.14 88343.94 83191.85 76137.60 70420.62 61951.42 55513.51 48036.16 40930.01 
 32636.05 28143.98 25744.55 23617.76 21838.68 20237.81 15620.38 13076.78 10308.65 7537.38  
 5174.45  3584.61  1871.23  998.98   136.20   81.90    36.28    25.10    20.16    17.03    
 15.01    13.41    12.04    10.93    10.15    9.53     8.94     8.42     7.90     7.42     
 7.05     6.74     6.48     6.32     6.11     5.98     5.79     5.65     5.51     5.36     
 5.13     4.93     4.85     4.81     4.76     4.63     4.45     4.24     4.10     4.00     
 3.90     3.86     3.82     3.78     3.74     3.73     3.71     3.71     3.69     3.67     
 3.67     3.66     3.66     3.66     3.65     3.65     3.65     3.69     3.76     3.82     
 3.92     4.03     4.16     4.29     4.43     4.59     4.78     5.00     5.25     5.52     
 5.84     6.16     6.52     6.89     7.30     7.74     8.22     8.71     9.28     9.89     
 10.56    11.26    12.02    12.82    13.67    14.56    15.50    16.47    17.51    18.59    
 19.73    20.92    22.14    23.39    24.70    26.05    27.44    28.85    30.36    31.97    
 33.67    35.44    37.37    39.36    41.46    43.55    45.86    48.25    50.71    53.24    
 55.83    58.49    61.23    64.03    66.83    69.66    72.53    75.52    78.56    81.64    
 84.84    88.27    91.92    95.60    99.43    103.37   107.53   111.73   116.08   120.66   
 125.38   130.04   134.52   138.91   143.39   147.51   151.18   154.37   157.27   159.79   
 161.86   163.63   165.09   165.99   166.18   165.81   164.73   163.06   160.76   157.98   
 154.77   150.88   146.76   142.46   137.98   132.87   127.42   121.78   116.27   110.68   
 103.93   
