IESNA:LM-63-2002
[TEST] 1
[TESTLAB] AOK
[TESTDATE] 2022-05-16
[ISSUEDATE] 2022-05-16 08:45:10
[NEARFIELD] 
[LAMPPOSITION] 0,0
[OTHER] EVERFINE GO-2000A_V1 SYSTEM
[MANUFAC] AOK
[LUMCAT] A
[LUMINAIRE] AOK-400WiSF-HVY-S5-00-5070-3585D-P
[LAMPCAT] B
[LAMP] 5050
[BALLAST] E
[BALLASTCAT] F
[OTHER] 
[OTHER] Gamma(deg)    Fz(lm)      Ft(lm)     %Lum    %Lamp
[OTHER]   0- 10      4317.83     4317.83     7.95     7.95
[OTHER]  10- 20      9082.43    13400.26    24.69    24.69
[OTHER]  20- 30     10434.29    23834.55    43.91    43.91
[OTHER]  30- 40     10263.97    34098.53    62.82    62.82
[OTHER]  40- 50      8454.88    42553.41    78.39    78.39
[OTHER]  50- 60      6004.81    48558.21    89.45    89.45
[OTHER]  60- 70      3379.16    51937.37    95.68    95.68
[OTHER]  70- 80      1392.58    53329.95    98.25    98.25
[OTHER]  80- 90       440.34    53770.29    99.06    99.06
[OTHER]  90-100       176.21    53946.50    99.38    99.38
[OTHER] 100-110        94.45    54040.95    99.56    99.56
[OTHER] 110-120        68.45    54109.40    99.68    99.68
[OTHER] 120-130        53.32    54162.72    99.78    99.78
[OTHER] 130-140        41.77    54204.48    99.86    99.86
[OTHER] 140-150        32.69    54237.18    99.92    99.92
[OTHER] 150-160        24.68    54261.86    99.96    99.96
[OTHER] 160-170        15.15    54277.01    99.99    99.99
[OTHER] 170-180         5.33    54282.34   100.00   100.00
[OTHER] 
TILT=NONE
1 54282 1 181 25 1 2 0.150 0.200 0.000
1.000 1 402.027
0.0    1.0    2.0    3.0    4.0    5.0    6.0    7.0    8.0    9.0    
 10.0   11.0   12.0   13.0   14.0   15.0   16.0   17.0   18.0   19.0   
 20.0   21.0   22.0   23.0   24.0   25.0   26.0   27.0   28.0   29.0   
 30.0   31.0   32.0   33.0   34.0   35.0   36.0   37.0   38.0   39.0   
 40.0   41.0   42.0   43.0   44.0   45.0   46.0   47.0   48.0   49.0   
 50.0   51.0   52.0   53.0   54.0   55.0   56.0   57.0   58.0   59.0   
 60.0   61.0   62.0   63.0   64.0   65.0   66.0   67.0   68.0   69.0   
 70.0   71.0   72.0   73.0   74.0   75.0   76.0   77.0   78.0   79.0   
 80.0   81.0   82.0   83.0   84.0   85.0   86.0   87.0   88.0   89.0   
 90.0   91.0   92.0   93.0   94.0   95.0   96.0   97.0   98.0   99.0   
 100.0  101.0  102.0  103.0  104.0  105.0  106.0  107.0  108.0  109.0  
 110.0  111.0  112.0  113.0  114.0  115.0  116.0  117.0  118.0  119.0  
 120.0  121.0  122.0  123.0  124.0  125.0  126.0  127.0  128.0  129.0  
 130.0  131.0  132.0  133.0  134.0  135.0  136.0  137.0  138.0  139.0  
 140.0  141.0  142.0  143.0  144.0  145.0  146.0  147.0  148.0  149.0  
 150.0  151.0  152.0  153.0  154.0  155.0  156.0  157.0  158.0  159.0  
 160.0  161.0  162.0  163.0  164.0  165.0  166.0  167.0  168.0  169.0  
 170.0  171.0  172.0  173.0  174.0  175.0  176.0  177.0  178.0  179.0  
 180.0  
0.0    15.0   30.0   45.0   60.0   75.0   90.0   105.0  120.0  135.0  
 150.0  165.0  180.0  195.0  210.0  225.0  240.0  255.0  270.0  285.0  
 300.0  315.0  330.0  345.0  360.0  
47774.90 45305.85 43994.57 43195.61 39648.68 33589.79 29246.73 24949.48 19262.51 15792.71 
 11948.64 8099.89  4251.14  2186.21  140.77   78.52    36.95    26.63    20.72    17.02    
 14.80    12.88    11.28    10.41    9.69     9.07     8.41     7.83     7.36     7.07     
 7.04     6.85     6.42     5.81     5.27     5.09     4.96     4.94     4.72     4.69     
 4.65     4.56     4.31     4.20     4.16     4.16     4.16     4.13     4.03     3.90     
 3.81     3.74     3.68     3.58     3.52     3.43     3.29     3.20     3.14     3.04     
 2.98     2.97     2.94     2.88     2.80     2.73     2.65     2.58     2.52     2.48     
 2.45     2.42     2.40     2.37     2.35     2.34     2.34     2.34     2.36     2.41     
 2.47     2.54     2.61     2.71     2.87     3.05     3.18     3.31     3.44     3.57     
 3.72     3.89     4.06     4.25     4.43     4.62     4.84     5.08     5.37     5.70     
 6.07     6.48     6.93     7.41     7.91     8.45     9.03     9.62     10.26    10.91    
 11.58    12.29    13.01    13.74    14.51    15.29    16.10    16.92    17.78    18.70    
 19.66    20.65    21.74    22.88    24.06    25.33    26.68    28.07    29.48    30.91    
 32.38    33.90    35.44    36.99    38.51    40.03    41.58    43.11    44.62    46.12    
 47.63    49.20    50.87    52.62    54.44    56.35    58.34    60.35    62.46    64.72    
 67.09    69.51    71.93    74.32    76.66    78.98    81.12    83.07    84.85    86.44    
 87.76    88.88    89.72    90.18    90.28    89.93    89.18    87.95    86.32    84.28    
 81.96    79.31    76.50    73.53    70.47    67.31    64.20    61.10    57.95    54.53    
 50.80    
47774.90 45390.91 43936.29 43064.23 42201.13 35146.38 31200.59 26956.71 22712.84 18463.13 
 13476.83 10401.72 6978.36  3734.36  517.28   295.02   219.51   144.45   116.12   109.64   
 117.42   87.04    67.77    73.85    74.02    62.30    47.02    40.14    35.24    26.11    
 19.28    16.10    14.12    12.50    11.01    9.48     8.74     8.60     8.26     8.05     
 7.86     7.53     7.29     6.93     6.53     6.11     5.81     5.53     5.24     4.95     
 4.69     4.44     4.17     3.93     3.70     3.48     3.26     3.09     2.95     2.82     
 2.70     2.61     2.52     2.42     2.34     2.28     2.23     2.21     2.17     2.13     
 2.10     2.05     2.02     2.02     2.02     2.03     2.03     2.03     2.05     2.09     
 2.14     2.20     2.28     2.37     2.47     2.57     2.70     2.81     2.94     3.10     
 3.27     3.46     3.64     3.85     4.09     4.36     4.64     4.95     5.29     5.67     
 6.09     6.54     7.03     7.54     8.08     8.63     9.20     9.80     10.43    11.08    
 11.75    12.45    13.20    13.96    14.73    15.53    16.38    17.24    18.12    19.10    
 20.11    21.20    22.34    23.52    24.72    25.99    27.33    28.72    30.10    31.50    
 32.93    34.36    35.80    37.21    38.60    39.96    41.34    42.72    44.06    45.47    
 46.97    48.52    50.14    51.88    53.66    55.50    57.41    59.42    61.52    63.73    
 66.05    68.43    70.73    73.08    75.35    77.45    79.40    81.14    82.71    84.06    
 85.22    86.20    86.89    87.26    87.25    86.81    85.99    84.74    83.11    81.19    
 79.08    76.77    74.42    72.00    69.49    66.93    64.25    61.48    58.44    55.33    
 50.80    
47774.90 45700.86 44257.89 43442.01 42915.42 39338.16 33761.48 30268.00 26530.26 21083.85 
 17699.37 13758.68 10791.53 7835.32  4879.11  1047.09  713.59   415.78   276.63   240.24   
 197.08   157.41   150.89   152.10   131.80   111.27   90.73    78.84    81.03    71.40    
 69.68    58.02    53.82    52.24    45.91    46.45    36.31    33.78    35.67    33.13    
 31.14    30.86    34.44    32.19    29.50    28.79    27.81    26.04    22.40    22.00    
 19.64    16.96    12.59    10.52    9.60     9.19     8.50     7.75     6.94     6.06     
 5.21     4.64     4.23     3.96     3.65     3.27     2.92     2.63     2.43     2.28     
 2.17     2.10     2.06     2.02     2.00     1.99     1.98     1.97     1.97     1.97     
 2.01     2.07     2.15     2.26     2.38     2.52     2.67     2.83     3.03     3.24     
 3.46     3.72     4.01     4.33     4.65     5.04     5.45     5.88     6.34     6.81     
 7.30     7.82     8.36     8.92     9.52     10.18    10.85    11.53    12.23    12.95    
 13.73    14.56    15.40    16.26    17.15    18.10    19.08    20.09    21.13    22.21    
 23.35    24.52    25.67    26.85    28.05    29.23    30.42    31.63    32.82    34.02    
 35.21    36.42    37.66    38.93    40.21    41.54    42.94    44.43    45.97    47.55    
 49.19    50.89    52.70    54.57    56.47    58.46    60.53    62.62    64.72    66.88    
 69.05    71.11    73.09    74.91    76.68    78.28    79.74    81.05    82.27    83.33    
 84.12    84.66    84.92    84.89    84.56    83.93    82.98    81.78    80.40    78.86    
 77.15    75.33    73.44    71.43    69.34    67.27    65.17    62.98    60.61    58.25    
 50.80    
47774.90 46216.34 44686.96 43821.39 43192.26 42456.45 40694.53 35051.55 31673.96 28503.22 
 25051.69 21597.70 17862.78 16150.80 11949.83 9771.55  7234.61  5835.92  3374.88  930.08   
 668.53   488.99   387.92   321.51   255.09   188.97   155.90   118.19   93.36    80.35    
 70.87    62.78    57.65    53.21    49.72    46.26    43.33    39.96    36.92    34.70    
 32.17    29.74    26.84    24.72    22.31    21.31    20.56    20.00    19.13    18.37    
 17.43    16.35    15.17    13.73    12.48    11.54    10.79    10.09    9.39     8.73     
 8.10     7.47     6.86     6.37     5.93     5.56     5.20     4.83     4.45     4.06     
 3.70     3.37     3.08     2.84     2.65     2.48     2.33     2.22     2.17     2.17     
 2.16     2.20     2.27     2.39     2.54     2.73     2.93     3.16     3.42     3.70     
 4.02     4.36     4.71     5.11     5.52     5.97     6.45     6.94     7.44     7.98     
 8.53     9.09     9.69     10.34    11.02    11.72    12.46    13.23    14.02    14.82    
 15.69    16.58    17.50    18.43    19.39    20.40    21.43    22.48    23.50    24.54    
 25.62    26.75    27.90    29.06    30.22    31.42    32.66    33.93    35.24    36.58    
 37.94    39.36    40.81    42.29    43.79    45.34    46.96    48.62    50.23    51.93    
 53.73    55.48    57.25    59.04    60.80    62.58    64.33    66.06    67.68    69.28    
 70.82    72.27    73.61    74.93    76.14    77.25    78.20    78.98    79.64    80.11    
 80.43    80.59    80.53    80.26    79.83    79.25    78.57    77.75    76.83    75.79    
 74.70    73.51    72.25    70.91    69.55    68.14    66.63    65.11    63.41    61.71    
 50.80    
47774.90 46746.05 45705.97 44704.47 43889.16 43004.62 41769.42 41167.09 40317.71 37308.84 
 33501.20 30697.51 28354.01 26023.25 24052.42 21504.89 18363.72 15849.02 14327.27 12037.43 
 10184.28 8336.48  6594.14  5134.88  3662.71  1663.61  1290.91  935.32   579.74   429.40   
 326.37   244.85   200.63   171.77   149.88   129.13   113.61   98.15    85.14    74.05    
 64.82    56.32    49.36    43.55    38.90    34.67    30.09    27.05    24.34    21.74    
 19.82    18.23    16.21    14.15    12.85    11.96    11.36    10.74    10.14    9.54     
 8.99     8.45     7.95     7.49     7.07     6.68     6.34     6.04     5.76     5.52     
 5.31     5.10     4.86     4.59     4.34     4.10     3.86     3.62     3.39     3.15     
 2.94     2.77     2.70     2.74     2.92     3.13     3.36     3.62     3.92     4.23     
 4.57     4.94     5.35     5.78     6.23     6.71     7.19     7.75     8.35     8.97     
 9.64     10.35    11.09    11.85    12.66    13.52    14.41    15.32    16.24    17.18    
 18.15    19.19    20.23    21.28    22.41    23.56    24.74    25.92    27.19    28.46    
 29.75    31.07    32.46    33.84    35.27    36.66    38.11    39.63    41.14    42.64    
 44.14    45.67    47.16    48.71    50.23    51.76    53.29    54.84    56.36    57.85    
 59.32    60.82    62.31    63.74    65.11    66.44    67.69    68.88    69.99    71.01    
 71.97    72.81    73.58    74.29    74.93    75.44    75.85    76.18    76.44    76.61    
 76.71    76.72    76.69    76.58    76.42    76.20    75.91    75.59    75.23    74.72    
 74.08    73.39    72.68    71.90    71.10    70.28    69.35    68.35    67.27    66.14    
 50.80    
47774.90 47354.79 46942.24 46507.23 45720.25 44813.08 43834.73 43062.05 42054.33 41182.88 
 40310.50 39324.40 38588.78 37814.15 36988.51 36066.37 35130.10 33914.99 31768.80 29752.00 
 27310.08 25542.68 24120.79 22697.91 21155.21 19315.80 17707.45 16565.60 14871.37 13227.14 
 11543.55 9942.93  8785.44  7685.56  6498.28  5342.06  4434.65  3892.72  3218.64  2621.82  
 2027.05  1638.99  1239.25  964.07   745.73   590.27   413.22   332.43   251.65   171.27   
 134.93   109.95   91.50    75.59    64.56    55.17    47.16    40.99    35.89    31.35    
 27.53    24.65    21.76    19.23    17.28    15.59    14.31    12.56    11.26    10.54    
 10.14    9.80     9.49     9.10     8.78     8.39     8.14     7.86     7.60     7.20     
 6.54     5.64     4.56     3.26     2.48     2.60     2.79     3.00     3.24     3.50     
 3.78     4.08     4.42     4.79     5.21     5.64     6.12     6.61     7.15     7.72     
 8.33     8.96     9.61     10.32    11.06    11.84    12.69    13.55    14.46    15.41    
 16.42    17.47    18.55    19.63    20.74    21.88    23.09    24.32    25.55    26.77    
 28.03    29.35    30.74    32.09    33.45    34.87    36.33    37.82    39.28    40.73    
 42.20    43.65    45.12    46.57    47.99    49.39    50.82    52.20    53.52    54.86    
 56.18    57.43    58.67    59.86    61.01    62.16    63.25    64.31    65.32    66.30    
 67.23    68.13    68.93    69.72    70.46    71.13    71.77    72.34    72.89    73.37    
 73.82    74.23    74.60    74.99    75.36    75.73    76.08    76.32    76.48    76.41    
 76.14    75.83    75.46    75.08    74.62    74.13    73.55    72.84    72.10    71.24    
 50.80    
47774.90 47996.11 48221.16 48430.85 48348.20 48080.60 47636.79 47391.81 46858.65 46344.52 
 45885.72 45391.33 44916.82 44440.48 43805.74 43223.76 42733.71 42284.96 41644.29 40902.55 
 40174.17 39395.50 38753.42 38227.00 37376.92 36732.79 35684.92 34777.09 33948.02 33063.54 
 32191.24 31113.26 30008.15 28969.89 27860.39 26783.21 25749.37 24682.64 23614.99 22471.86 
 21421.90 20383.94 19258.48 18217.65 17131.11 16069.63 15084.95 14047.18 13020.97 12119.11 
 11173.61 10281.85 9405.93  8634.74  7825.90  7090.18  6439.40  5847.33  5277.84  4708.64  
 4164.79  3719.34  3284.39  2948.16  2611.93  2276.14  1982.57  1734.77  1503.13  1295.95  
 1117.80  954.90   804.20   680.01   564.99   467.69   375.34   303.33   249.40   195.60   
 154.00   118.46   89.79    68.66    51.56    25.77    13.91    5.88     2.47     1.89     
 1.64     1.29     1.09     1.10     1.13     1.17     1.21     1.25     1.32     1.39     
 1.46     1.53     1.62     1.71     1.82     1.93     2.05     2.19     2.33     2.49     
 2.66     2.83     3.01     3.20     3.40     3.60     3.81     4.03     4.27     4.53     
 4.80     5.10     5.39     5.69     6.01     6.33     6.67     7.02     7.37     7.74     
 8.12     8.51     8.93     9.37     9.75     10.17    10.62    11.10    11.59    12.07    
 12.57    13.11    13.69    14.27    14.88    15.58    16.28    16.99    17.74    18.51    
 19.29    20.08    20.93    21.82    22.75    23.73    24.81    26.01    27.32    28.71    
 30.11    31.61    33.15    34.80    36.51    38.32    40.22    42.05    43.80    45.59    
 47.33    49.06    50.76    52.43    53.99    55.42    56.83    58.09    59.31    60.50    
 50.80    
47774.90 48673.56 49533.52 50321.08 50899.78 51331.50 51543.52 51925.27 52164.74 52450.85 
 52561.38 52626.33 52698.91 52775.56 52740.12 52715.81 52547.83 52378.33 52004.96 51457.71 
 50740.87 50126.49 49320.98 48569.85 47518.94 46505.62 45456.57 44250.30 43011.61 41732.63 
 40493.24 39398.19 38188.48 36977.72 35847.00 34644.91 33422.20 32243.39 31140.03 29966.31 
 28875.80 27910.05 26929.48 25832.78 24815.04 23794.00 22668.86 21682.98 20722.26 19705.64 
 18767.29 17763.02 16754.09 15873.07 15061.25 14234.04 13446.70 12651.70 11868.65 11173.23 
 10478.50 9769.47  9092.84  8470.43  7874.48  7271.08  6705.72  6144.76  5579.37  5074.81  
 4576.03  4123.17  3700.65  3278.01  2906.02  2597.35  2326.97  2054.10  1810.00  1588.06  
 1410.54  1254.49  1120.20  986.08   881.78   784.23   707.13   640.56   579.33   521.73   
 469.22   417.15   369.15   329.35   295.30   264.40   238.01   215.16   195.62   177.15   
 161.88   148.35   135.39   125.14   114.92   106.63   99.53    92.79    87.67    82.78    
 78.39    74.48    71.01    67.33    64.00    60.96    57.68    54.98    52.10    49.63    
 46.94    44.39    42.36    39.82    37.25    34.57    31.91    29.31    26.48    23.26    
 19.47    15.61    12.49    10.31    8.49     7.20     6.81     6.95     7.35     7.77     
 8.20     8.64     9.08     9.53     9.98     10.44    10.89    11.34    11.80    12.27    
 12.77    13.28    13.78    14.34    14.93    15.57    16.28    17.06    17.92    18.92    
 19.96    21.12    22.40    23.87    25.38    27.08    28.96    30.84    32.84    34.85    
 36.96    39.12    41.33    43.45    45.59    47.68    49.70    51.68    53.63    55.70    
 50.80    
47774.90 49284.86 50654.35 52003.76 53347.80 54575.28 55443.21 56365.02 57119.25 57722.96 
 57932.91 58066.00 57767.85 56900.51 55670.32 54246.81 53066.57 51808.27 50711.63 49736.01 
 48598.03 47531.39 46384.81 45261.58 44075.92 43037.46 41911.56 40841.67 39768.23 38730.64 
 37679.18 36556.53 35421.55 34258.02 33049.51 31762.21 30595.25 29440.17 28275.17 27283.02 
 26347.56 25463.17 24578.78 23695.22 22890.96 22135.07 21380.77 20658.66 19946.21 19226.20 
 18517.44 17767.60 17009.26 16189.69 15431.85 14724.17 14031.12 13374.94 12672.44 11934.33 
 11242.34 10604.96 9985.22  9446.34  8948.18  8451.70  7934.21  7354.18  6814.90  6287.03  
 5797.31  5305.68  4823.98  4358.06  3920.11  3417.48  3041.20  2664.93  2289.69  2009.51  
 1715.33  1459.91  1273.52  1098.30  965.06   847.90   762.86   695.75   640.33   593.61   
 545.01   497.79   452.09   413.04   378.30   349.04   321.39   297.31   275.04   257.15   
 239.27   221.43   208.41   196.34   185.31   175.62   167.03   159.13   152.13   145.91   
 140.24   135.30   130.10   125.25   120.87   116.59   112.67   108.64   104.96   101.39   
 98.01    94.68    91.58    88.56    85.58    82.53    79.56    76.30    73.40    70.39    
 67.81    64.95    62.25    59.65    57.13    54.74    52.08    49.23    46.48    43.77    
 40.90    37.90    33.95    31.51    28.76    23.46    21.32    15.82    9.45     8.21     
 7.93     8.28     8.78     9.30     9.83     10.37    10.93    11.52    12.19    12.98    
 13.79    14.65    15.59    16.66    17.88    19.23    20.76    22.42    24.22    26.23    
 28.46    30.72    33.09    35.52    38.10    40.72    43.42    46.15    49.03    52.03    
 50.80    
47774.90 49718.02 51565.86 53460.94 55140.26 56909.20 58416.06 59269.23 59628.69 59280.20 
 57678.11 56244.88 55113.16 54087.96 53067.61 51939.22 50964.79 49857.09 48620.23 47314.20 
 45839.71 44223.76 42658.56 40913.83 39271.60 37798.25 36458.32 35242.81 34092.79 33183.05 
 32523.34 31997.84 31585.49 31154.14 30686.63 30238.82 29783.16 29371.47 28897.36 28273.76 
 27504.89 26714.63 25932.18 25169.78 24423.55 23557.51 22554.45 21514.25 20537.80 19629.88 
 18740.92 17901.59 17074.73 16295.93 15589.52 14875.77 14157.95 13392.10 12637.85 11839.69 
 11169.60 10500.48 9833.65  9205.71  8564.37  7935.47  7316.00  6699.85  5987.65  5317.22  
 4740.83  4269.06  3851.16  3454.79  3070.77  2743.57  2365.87  2080.08  1835.24  1622.79  
 1415.06  1256.04  1114.83  973.76   873.48   786.68   711.26   645.80   596.71   554.09   
 512.83   471.68   431.05   397.80   366.18   339.15   316.53   297.61   281.21   266.72   
 253.67   242.13   231.56   222.65   213.67   205.13   197.97   191.36   185.06   179.03   
 173.13   167.88   162.52   157.71   153.39   149.17   145.21   141.43   137.51   133.94   
 130.42   126.63   122.83   119.09   115.51   112.28   108.98   105.48   102.15   98.77    
 95.43    92.28    88.99    85.82    82.73    79.64    76.87    73.80    70.84    67.91    
 64.94    61.41    58.61    56.05    53.59    51.25    49.09    46.05    42.67    39.12    
 36.46    32.00    30.17    27.49    26.04    22.41    13.25    12.16    11.54    11.28    
 10.89    10.95    11.72    12.66    13.72    14.88    16.07    17.38    18.92    20.64    
 22.56    24.71    27.02    29.48    32.10    34.85    37.72    41.00    44.43    48.17    
 50.80    
47774.90 50074.35 52261.49 54417.50 56643.37 58685.79 59777.81 60229.93 59049.98 57630.10 
 56535.23 55526.80 54737.38 53859.42 52583.52 51118.63 49553.05 47595.16 45569.00 43514.24 
 41631.79 39924.11 38470.97 37250.03 36408.21 35851.99 35446.64 34956.85 34422.76 33860.99 
 33320.93 32806.95 32248.23 31617.69 30639.04 29647.66 28591.57 27471.92 26384.08 25283.81 
 24183.54 23084.53 22110.68 21265.46 20498.35 19753.30 19022.69 18242.02 17479.60 16717.58 
 15955.74 15208.27 14476.48 13736.62 13000.94 12274.85 11573.74 10895.14 10234.86 9617.36  
 9019.49  8402.68  7759.92  7050.56  6421.96  5924.18  5450.97  4999.55  4576.25  4201.22  
 3829.82  3491.01  3168.45  2882.15  2595.85  2310.20  2088.00  1874.32  1654.01  1482.10  
 1324.42  1183.00  1047.44  943.06   848.41   765.85   695.29   636.67   589.00   549.07   
 510.59   472.32   432.92   394.80   365.03   336.98   313.86   294.53   278.80   265.85   
 254.88   246.09   237.29   228.52   221.60   215.60   210.02   204.81   200.01   195.55   
 191.00   186.51   182.40   178.00   173.91   169.73   165.09   160.38   155.56   150.43   
 145.62   140.62   135.91   131.48   127.70   124.29   121.07   118.27   114.94   111.78   
 108.72   105.61   102.30   99.55    96.87    94.02    91.02    87.95    84.92    81.44    
 77.19    73.19    68.62    64.57    61.70    59.30    57.46    55.91    55.20    52.94    
 51.59    49.88    47.20    43.67    40.99    39.09    36.27    33.53    31.53    29.50    
 13.78    11.88    11.93    12.03    12.32    13.31    14.54    15.87    17.24    18.65    
 20.22    22.00    23.97    26.12    28.60    31.37    34.36    37.70    41.53    45.64    
 50.80    
47774.90 50205.44 52663.43 54974.65 57308.57 58871.33 59548.61 58476.37 57189.07 56050.67 
 55104.14 54401.42 53454.63 52104.66 50386.00 48255.20 46083.49 43865.95 41981.04 40373.01 
 38898.49 37877.53 37213.88 36747.82 36271.49 35727.54 35230.73 34664.29 34087.87 33420.16 
 32553.25 31442.49 30250.13 29061.03 27975.18 26858.44 25721.57 24536.88 23398.63 22289.34 
 21148.63 20007.60 19128.38 18457.91 17872.65 17319.89 16759.45 16147.31 15475.17 14786.68 
 14099.93 13387.54 12694.73 12037.81 11431.37 10825.38 10270.13 9714.10  9150.81  8468.27  
 7710.28  7087.57  6600.01  6161.62  5703.99  5263.06  4855.68  4468.31  4095.20  3752.00  
 3403.00  3062.81  2800.76  2560.68  2329.25  2111.18  1897.65  1691.81  1527.07  1366.32  
 1230.55  1109.74  989.04   893.07   808.93   737.53   668.82   611.16   567.69   531.23   
 496.56   458.92   420.52   384.10   352.52   322.13   296.31   277.15   259.74   247.07   
 236.65   228.20   221.15   215.03   209.30   204.14   199.60   195.32   190.86   186.49   
 182.43   178.67   175.30   171.98   168.74   165.51   161.84   158.40   154.73   150.58   
 146.99   143.45   139.78   136.07   132.49   128.82   125.15   121.49   118.15   114.85   
 111.63   108.50   105.40   102.53   99.71    97.09    92.88    88.12    86.11    84.39    
 82.30    79.94    77.59    74.56    71.63    68.89    66.12    63.38    60.51    57.67    
 55.16    52.70    50.53    48.80    46.73    43.52    41.40    39.50    37.24    34.44    
 30.64    27.32    12.58    12.56    13.25    13.99    15.16    16.67    18.22    19.78    
 21.27    22.88    24.60    26.46    28.66    31.41    34.25    37.63    41.50    45.46    
 50.80    
47774.90 50235.76 52671.74 55012.98 57374.47 58777.78 59215.28 57795.36 56613.33 55549.49 
 54713.67 54051.36 52936.47 51412.14 49437.60 47255.77 44969.87 42921.87 41216.59 39692.44 
 38451.95 37796.71 37340.32 36933.65 36365.06 35847.47 35285.92 34691.57 34003.82 33126.91 
 32006.73 30796.95 29658.66 28528.44 27409.88 26269.94 24992.52 23715.09 22437.59 21156.84 
 20081.03 19310.91 18684.99 18124.66 17604.62 17054.36 16461.81 15824.50 15174.14 14506.25 
 13816.91 13147.14 12500.77 11833.04 11176.44 10602.74 10072.03 9501.78  8846.72  8118.86  
 7420.48  6935.49  6433.77  5974.51  5572.23  5142.28  4747.67  4349.43  3986.80  3644.53  
 3257.31  2977.77  2734.03  2490.65  2275.89  2057.66  1832.09  1643.93  1484.84  1332.13  
 1200.99  1075.77  968.32   872.16   786.53   714.17   648.45   590.01   545.48   509.58   
 475.40   440.47   403.49   369.79   334.87   306.80   280.23   258.80   241.96   225.18   
 214.76   206.84   200.44   195.11   190.25   186.00   182.00   178.49   174.97   171.46   
 167.92   164.61   161.50   158.77   156.24   153.67   151.31   148.95   146.59   144.05   
 140.67   137.66   134.82   131.75   128.74   125.73   122.68   119.68   116.77   113.94   
 111.19   108.44   105.72   102.92   100.17   97.47    94.79    91.47    85.51    83.26    
 81.31    79.55    77.53    75.11    72.47    69.80    67.31    64.86    62.42    60.01    
 57.34    55.11    53.18    51.18    49.42    47.52    45.65    43.77    42.08    40.32    
 33.23    30.47    19.49    13.49    14.24    15.20    16.74    18.51    20.36    22.22    
 23.99    25.75    27.47    29.20    31.03    33.50    36.18    39.27    42.97    46.97    
 50.80    
47774.90 50068.45 52412.33 54697.60 56801.30 58136.07 58510.42 57095.56 55926.89 54957.23 
 54166.30 53593.23 52581.46 51192.19 49481.10 47385.65 45163.40 43130.58 41362.87 39825.61 
 38373.06 37554.24 37016.35 36559.51 36107.29 35627.54 35139.70 34613.86 34050.96 33405.20 
 32515.01 31402.41 30220.94 29058.54 27943.50 26836.74 25639.53 24429.79 23215.39 22025.14 
 20850.86 19767.09 18927.86 18252.07 17699.63 17156.13 16585.15 15982.48 15328.38 14662.06 
 14005.33 13311.53 12648.79 12021.73 11421.75 10822.01 10287.83 9763.38  9197.13  8519.22  
 7771.40  7142.12  6643.80  6188.20  5750.92  5330.55  4914.32  4537.59  4159.21  3820.30  
 3490.88  3126.83  2863.81  2616.75  2387.37  2169.71  1958.54  1739.45  1571.32  1415.20  
 1272.73  1159.67  1046.84  934.01   845.75   770.29   703.32   640.98   593.27   554.74   
 517.67   479.11   440.53   405.18   369.72   338.14   310.86   288.35   269.91   253.40   
 240.76   230.78   222.37   214.96   207.73   201.31   195.65   190.71   185.60   180.49   
 175.86   171.70   167.88   164.42   161.17   158.14   154.89   151.91   148.71   144.86   
 141.61   138.58   135.59   132.34   129.18   125.69   122.19   119.04   115.95   113.11   
 110.25   107.09   104.13   101.27   98.47    95.78    91.91    87.50    84.98    82.60    
 80.42    78.31    75.89    73.50    70.97    68.52    66.35    63.96    61.65    58.73    
 56.31    54.45    52.52    50.52    48.44    46.07    44.39    42.95    41.63    37.92    
 35.78    28.65    16.50    16.86    17.64    19.16    21.03    23.00    24.96    26.82    
 28.59    30.35    32.04    33.67    35.47    37.69    39.95    42.52    45.44    48.65    
 50.80    
47774.90 49779.07 51849.38 53873.33 55948.96 57431.41 58473.61 58153.53 57008.76 56110.41 
 55044.13 54064.05 53423.56 52620.05 51285.52 49814.79 48101.33 46092.87 44001.18 42144.37 
 40546.47 39033.37 37743.70 36786.91 36122.37 35626.84 35162.50 34682.47 34202.64 33738.74 
 33295.35 32822.73 32296.96 31572.67 30638.99 29579.58 28503.75 27365.17 26226.73 25099.10 
 23971.47 22844.85 21820.39 20939.65 20135.59 19284.75 18448.61 17682.11 16988.37 16295.28 
 15623.57 14944.89 14249.32 13536.98 12821.20 12113.64 11430.63 10773.90 10153.92 9549.40  
 8974.14  8386.73  7811.27  7143.91  6496.60  5970.37  5540.75  5102.08  4672.86  4270.34  
 3908.01  3583.33  3280.84  2941.72  2659.82  2378.46  2150.88  1936.13  1739.24  1541.72  
 1384.07  1230.79  1104.05  983.99   890.32   802.67   727.33   661.61   605.13   563.96   
 527.06   489.43   451.35   415.55   380.80   351.39   324.21   301.42   280.78   264.53   
 250.95   239.22   227.51   217.63   209.00   201.08   193.88   186.83   180.34   174.60   
 169.12   164.12   159.48   155.38   151.11   147.46   143.88   139.88   135.99   132.18   
 128.43   124.47   120.95   117.75   114.63   111.52   108.68   106.05   103.26   100.51   
 97.93    95.60    93.15    90.31    87.92    85.47    82.99    80.52    77.99    75.95    
 73.39    70.26    66.86    63.41    59.16    56.52    54.52    53.13    52.03    51.87    
 51.26    49.84    47.08    44.91    43.47    41.49    39.86    37.03    36.02    31.23    
 19.78    19.63    20.38    21.59    23.46    25.52    27.55    29.53    31.43    33.23    
 34.99    36.71    38.37    40.09    42.26    44.37    46.44    48.61    50.92    53.35    
 50.80    
47774.90 49395.96 51111.03 52733.34 54483.52 56078.32 57236.95 57870.17 57611.49 56589.66 
 55448.10 54644.20 53609.60 52549.67 51773.95 50867.97 49745.78 48478.99 47171.89 45627.15 
 44037.36 42310.98 40731.30 39094.51 37659.74 36277.25 35062.73 34023.80 33146.61 32519.90 
 32043.41 31657.80 31238.00 30852.91 30522.64 30177.24 29823.93 29447.18 29047.96 28499.77 
 27747.89 26935.69 26142.39 25329.81 24513.16 23575.79 22528.37 21472.24 20462.80 19535.56 
 18685.32 17868.32 17074.97 16309.08 15625.15 14949.74 14247.16 13524.88 12782.95 12044.77 
 11347.49 10650.53 9953.56  9307.46  8683.92  8051.92  7449.82  6866.14  6226.57  5550.61  
 4959.64  4457.04  4015.19  3604.51  3224.88  2885.38  2578.20  2221.21  1956.11  1737.20  
 1544.73  1352.48  1192.22  1066.10  940.22   841.82   755.14   684.58   623.31   575.11   
 535.23   495.80   458.29   418.37   385.23   353.60   326.55   301.76   281.28   263.05   
 246.53   232.41   219.42   207.84   197.46   187.05   178.23   170.55   163.51   157.04   
 151.42   146.06   140.83   135.56   131.31   127.40   123.55   119.70   116.51   113.19   
 110.17   107.33   104.44   101.48   98.81    96.12    93.44    90.94    88.54    86.07    
 83.49    80.82    78.30    75.83    73.35    70.93    68.55    66.22    63.99    61.64    
 59.19    56.72    54.31    51.55    49.17    47.14    45.48    42.88    41.08    39.20    
 37.25    35.81    31.83    30.81    30.74    22.57    20.19    21.26    22.58    23.27    
 24.77    26.62    28.49    30.35    32.13    33.91    35.60    37.25    38.83    40.39    
 41.88    43.40    45.32    47.21    49.08    50.80    52.59    54.46    56.29    58.14    
 50.80    
47774.90 48840.01 50032.86 51237.67 52474.28 53782.68 54958.09 55996.68 56601.55 56864.61 
 56850.27 56226.86 55100.76 53988.09 53032.47 51953.95 50942.45 50036.99 48962.52 47959.93 
 46923.43 45868.42 44889.98 43837.05 42696.02 41628.72 40582.71 39378.36 38183.82 37153.67 
 35992.09 34885.00 33739.22 32593.90 31491.22 30397.42 29404.87 28473.38 27477.28 26571.14 
 25754.16 24963.00 24221.63 23480.26 22740.16 22117.53 21510.27 20909.40 20318.25 19720.39 
 19053.63 18356.97 17618.92 16889.37 16184.30 15459.46 14756.38 14034.50 13314.71 12606.45 
 11911.95 11222.04 10587.02 9990.07  9461.01  8923.79  8418.40  7844.33  7267.27  6739.22  
 6245.27  5752.18  5264.33  4789.57  4328.42  3890.82  3419.36  2976.43  2634.12  2292.51  
 2013.20  1751.70  1473.68  1274.71  1108.57  958.22   849.62   756.63   684.87   628.23   
 583.67   542.28   498.68   456.97   417.41   382.18   352.19   323.45   297.34   273.65   
 253.52   234.89   216.29   201.18   188.04   175.76   165.00   155.04   146.82   139.67   
 133.17   127.24   121.59   116.40   111.36   107.02   103.31   99.88    96.53    93.12    
 89.78    86.81    83.65    80.65    77.99    75.07    72.30    69.74    67.30    64.77    
 62.12    59.59    57.05    54.73    52.38    50.13    48.10    45.98    44.10    42.34    
 40.17    37.94    35.05    32.69    30.53    28.83    25.20    19.25    18.34    18.65    
 20.00    21.50    23.06    24.63    26.21    27.80    29.39    30.96    32.52    34.06    
 35.58    37.06    38.49    39.92    41.31    42.68    44.02    45.37    46.74    48.57    
 50.15    51.76    53.29    54.75    56.23    57.71    59.24    60.75    62.25    63.58    
 50.80    
47774.90 48322.39 48917.25 49639.87 50378.94 51039.08 51638.80 52025.99 52260.82 52324.61 
 52552.67 52743.64 52783.81 52730.09 52586.85 52365.68 51909.59 51423.57 50902.59 50362.00 
 49747.98 48913.50 47884.22 46864.83 45641.01 44566.06 43588.82 42599.58 41472.72 40433.11 
 39498.43 38572.43 37619.52 36589.23 35508.12 34368.70 33240.38 32170.07 31145.47 30160.79 
 29107.17 28056.71 27002.44 26071.51 25126.27 24142.33 23181.20 22282.01 21325.42 20376.09 
 19398.60 18445.21 17572.97 16720.79 15895.77 15051.72 14215.21 13475.22 12774.63 12004.87 
 11311.91 10619.55 9927.18  9262.75  8620.86  7967.45  7368.67  6827.07  6274.22  5740.45  
 5223.66  4683.52  4207.92  3781.09  3375.84  2985.65  2659.29  2377.69  2092.58  1839.50  
 1615.64  1424.10  1253.95  1122.41  991.16   859.91   760.50   672.08   606.14   547.86   
 491.96   449.69   406.30   363.37   324.27   289.01   259.99   234.61   211.24   190.83   
 172.97   157.75   144.11   131.36   120.94   110.53   102.64   95.33    88.83    83.05    
 78.05    73.47    69.26    65.21    62.04    58.63    55.31    52.36    49.48    46.95    
 43.94    40.95    38.47    36.32    34.16    31.92    29.66    27.47    25.34    23.01    
 21.12    18.06    14.95    13.91    13.88    14.58    15.60    16.65    17.72    18.80    
 19.95    21.12    22.30    23.51    24.75    26.00    27.26    28.53    29.81    31.10    
 32.37    33.65    34.91    36.19    37.47    38.72    39.97    41.23    42.48    43.74    
 44.97    46.20    47.41    48.66    49.89    51.13    52.40    54.01    56.02    57.28    
 58.55    59.81    61.08    62.33    63.56    64.82    66.08    67.23    68.32    69.36    
 50.80    
47774.90 47752.58 47736.46 47875.55 48056.09 48200.83 47853.19 47328.53 47087.80 46675.70 
 46090.60 45598.92 44993.00 44437.51 43934.31 43391.86 42596.39 42050.32 41495.54 41087.60 
 40228.47 39407.63 38579.35 37890.16 37441.18 36553.21 35779.89 34815.40 33854.26 33059.99 
 32025.49 31095.30 30023.32 29060.96 27940.84 26826.87 25665.26 24650.36 23552.43 22395.08 
 21280.65 20218.41 19109.13 18015.17 16909.47 15859.30 14964.87 14028.40 13019.83 12054.29 
 11257.24 10461.88 9459.59  8644.42  7947.98  7231.98  6511.70  5982.07  5417.06  4810.50  
 4261.20  3779.99  3368.60  3013.66  2664.24  2325.76  2027.30  1780.48  1537.89  1322.76  
 1149.42  976.52   803.63   665.68   542.52   442.13   352.64   274.39   214.18   164.43   
 123.17   94.75    66.47    52.21    39.88    25.32    12.11    3.62     3.50     3.46     
 3.44     3.41     3.38     3.36     3.31     3.52     3.76     4.01     4.30     4.61     
 4.93     5.29     5.67     6.09     6.55     7.02     7.52     8.03     8.59     9.20     
 9.81     10.49    11.20    11.93    12.70    13.52    14.35    15.21    16.12    17.08    
 18.03    19.01    20.01    21.08    22.15    23.25    24.39    25.60    26.80    28.01    
 29.25    30.48    31.75    33.06    34.40    35.70    36.98    38.20    39.31    40.48    
 41.64    42.78    43.97    45.17    46.26    47.33    48.38    49.38    50.38    51.39    
 52.43    53.41    54.36    55.27    56.15    56.94    57.71    58.46    59.17    59.84    
 60.46    61.05    61.60    62.11    62.58    63.00    63.69    64.90    65.27    65.54    
 65.71    65.80    65.80    65.67    65.44    65.09    64.66    64.04    63.29    62.42    
 50.80    
47774.90 47037.02 46382.13 46064.64 45895.32 45742.67 45241.56 44669.40 43791.94 43438.49 
 42267.45 41520.26 40691.52 38277.85 36294.64 33687.80 31555.67 29732.26 28810.28 26900.95 
 25321.41 23741.87 22165.85 21013.33 19184.80 17481.94 15231.65 13648.20 12234.13 11313.81 
 9965.53  8755.41  7401.07  6349.59  5749.63  4789.59  3996.59  3378.29  2795.01  2212.17  
 1675.47  1228.57  971.78   747.44   568.48   407.93   333.71   259.48   185.61   150.52   
 123.39   105.83   91.66    77.25    65.18    56.42    49.60    43.80    39.23    34.80    
 31.09    28.11    25.35    23.00    20.83    18.68    15.94    14.03    13.22    12.84    
 12.44    12.17    11.92    11.65    11.36    11.00    10.64    10.27    10.06    9.76     
 9.15     8.51     7.61     6.26     4.79     3.04     2.73     2.91     3.12     3.36     
 3.62     3.91     4.22     4.56     4.95     5.35     5.76     6.23     6.74     7.26     
 7.81     8.37     8.96     9.59     10.24    10.93    11.66    12.41    13.18    14.00    
 14.88    15.81    16.75    17.74    18.76    19.82    20.94    22.08    23.21    24.33    
 25.51    26.70    27.94    29.17    30.38    31.63    32.91    34.24    35.55    36.88    
 38.23    39.57    40.92    42.27    43.57    44.87    46.20    47.49    48.73    49.93    
 51.13    52.26    53.37    54.45    55.49    56.52    57.55    58.61    59.61    60.64    
 61.62    62.56    63.42    64.28    65.09    65.78    66.42    66.97    67.45    67.88    
 68.21    68.46    68.67    68.82    68.99    69.11    69.40    69.76    69.91    69.68    
 69.30    68.81    68.21    67.44    66.53    65.48    64.25    62.85    61.19    59.49    
 50.80    
47774.90 46459.73 45591.74 45085.45 44795.52 44604.60 44406.14 41125.49 36873.69 33603.71 
 31831.67 28850.93 26445.31 23982.14 20704.31 17802.82 16849.49 14044.73 12077.29 10120.60 
 8163.91  6526.75  5429.06  2765.32  1351.75  1026.03  711.84   527.33   396.18   291.78   
 217.86   170.26   145.23   128.16   114.74   101.36   89.31    79.92    72.29    65.09    
 58.46    52.37    46.57    41.52    37.05    33.21    30.30    27.38    24.78    22.29    
 19.81    17.06    15.16    13.91    13.13    12.38    11.72    11.04    10.43    9.87     
 9.37     8.82     8.31     7.82     7.36     7.03     6.72     6.40     6.08     5.84     
 5.64     5.48     5.23     4.98     4.74     4.58     4.39     4.18     3.95     3.77     
 3.58     3.40     3.23     3.12     3.11     3.28     3.51     3.77     4.04     4.34     
 4.67     5.02     5.40     5.82     6.28     6.78     7.28     7.83     8.43     9.07     
 9.73     10.43    11.18    11.96    12.78    13.63    14.49    15.41    16.36    17.35    
 18.35    19.38    20.45    21.56    22.70    23.87    25.07    26.25    27.49    28.76    
 30.05    31.35    32.71    34.08    35.44    36.81    38.26    39.71    41.17    42.65    
 44.12    45.60    47.09    48.61    50.15    51.63    53.15    54.66    56.15    57.63    
 59.10    60.60    62.11    63.58    65.03    66.44    67.81    69.18    70.45    71.64    
 72.79    73.86    74.86    75.77    76.64    77.34    77.94    78.42    78.79    79.04    
 79.23    79.35    79.28    79.12    78.83    78.45    77.95    77.28    76.45    75.57    
 74.54    73.38    71.98    70.47    68.78    66.89    64.81    62.58    60.15    57.51    
 50.80    
47774.90 45926.78 44900.86 44158.07 43765.26 41866.82 36724.05 33958.91 30528.75 26625.64 
 22722.54 18838.38 17228.12 12722.27 10818.36 7931.47  6395.07  3652.86  934.67   622.59   
 508.27   392.86   328.66   283.33   237.99   192.90   174.61   132.95   103.27   85.33    
 71.42    63.17    57.36    52.74    49.14    46.04    43.08    40.15    38.30    35.69    
 32.99    29.70    27.44    25.63    24.63    24.21    23.46    22.30    21.10    19.85    
 18.40    17.10    15.74    14.25    12.70    11.36    10.39    9.68     9.18     8.57     
 7.91     7.34     6.84     6.35     5.91     5.50     5.11     4.70     4.43     4.20     
 4.04     3.88     3.74     3.62     3.50     3.43     3.37     3.30     3.29     3.28     
 3.30     3.35     3.44     3.56     3.72     3.90     4.09     4.28     4.49     4.72     
 4.97     5.23     5.51     5.83     6.19     6.58     7.00     7.48     7.99     8.52     
 9.10     9.68     10.28    10.95    11.64    12.38    13.16    13.95    14.77    15.64    
 16.56    17.54    18.51    19.51    20.52    21.58    22.67    23.81    24.92    26.03    
 27.15    28.32    29.54    30.77    31.97    33.22    34.49    35.85    37.21    38.59    
 40.02    41.50    43.02    44.58    46.18    47.81    49.50    51.26    53.01    54.82    
 56.72    58.62    60.51    62.43    64.33    66.22    68.07    69.89    71.63    73.35    
 75.02    76.62    78.12    79.60    80.97    82.18    83.25    84.11    84.79    85.31    
 85.69    85.81    85.73    85.44    84.94    84.26    83.44    82.29    81.06    79.64    
 78.07    76.24    74.25    72.06    69.71    67.19    64.47    61.59    58.48    55.09    
 50.80    
47774.90 45670.12 44555.53 43815.76 42247.44 35936.25 32334.98 28552.98 24480.68 19721.59 
 16864.84 12351.30 9610.50  6889.73  2102.33  1232.15  403.02   338.47   203.98   205.96   
 163.40   179.21   139.26   121.52   104.04   82.85    85.61    80.74    79.38    68.77    
 61.16    59.82    58.44    61.88    49.42    43.47    44.73    37.45    41.83    44.74    
 37.37    41.93    37.12    41.06    33.82    32.59    29.51    29.54    28.64    22.26    
 23.37    21.47    19.83    14.33    10.70    9.41     9.27     9.28     8.46     7.70     
 7.03     6.43     5.83     5.31     4.81     4.36     3.99     3.68     3.41     3.16     
 2.95     2.78     2.66     2.58     2.53     2.49     2.48     2.48     2.48     2.49     
 2.54     2.63     2.72     2.83     2.96     3.10     3.27     3.44     3.61     3.81     
 4.02     4.25     4.50     4.77     5.07     5.41     5.78     6.20     6.64     7.13     
 7.62     8.15     8.74     9.36     10.02    10.71    11.42    12.17    12.97    13.78    
 14.63    15.52    16.44    17.41    18.38    19.40    20.47    21.58    22.70    23.88    
 25.07    26.25    27.48    28.74    29.99    31.21    32.48    33.78    35.05    36.32    
 37.61    38.89    40.22    41.61    43.02    44.49    46.05    47.67    49.34    51.04    
 52.79    54.65    56.59    58.57    60.60    62.67    64.80    67.02    69.23    71.39    
 73.53    75.56    77.53    79.35    81.13    82.73    84.17    85.52    86.78    87.84    
 88.63    89.20    89.51    89.49    89.14    88.48    87.51    86.18    84.63    82.82    
 80.71    78.39    75.85    73.05    70.15    67.02    63.79    60.43    56.92    53.23    
 50.80    
47774.90 45310.76 44030.04 43235.42 40425.99 33886.98 30152.68 25300.26 20464.35 17806.31 
 12182.06 9227.61  6256.66  3285.71  340.62   272.09   203.56   135.55   121.50   124.22   
 94.31    56.93    39.97    35.14    26.62    22.49    19.77    17.78    15.97    14.66    
 14.05    13.19    12.23    11.28    10.26    9.53     9.05     8.68     8.42     8.13     
 7.76     7.40     7.07     6.71     6.48     6.18     5.87     5.56     5.35     5.04     
 4.78     4.54     4.27     4.03     3.82     3.59     3.34     3.13     2.97     2.83     
 2.71     2.61     2.54     2.47     2.39     2.33     2.28     2.23     2.19     2.16     
 2.12     2.11     2.10     2.10     2.10     2.10     2.10     2.10     2.12     2.16     
 2.20     2.27     2.34     2.42     2.52     2.63     2.74     2.86     2.99     3.14     
 3.31     3.48     3.65     3.85     4.07     4.33     4.60     4.91     5.25     5.63     
 6.06     6.53     7.02     7.54     8.08     8.67     9.27     9.88     10.52    11.21    
 11.92    12.69    13.45    14.21    15.01    15.87    16.79    17.76    18.73    19.73    
 20.77    21.88    23.07    24.29    25.53    26.81    28.18    29.61    31.03    32.42    
 33.86    35.32    36.79    38.25    39.72    41.18    42.65    44.17    45.67    47.23    
 48.89    50.58    52.37    54.21    56.14    58.12    60.15    62.30    64.46    66.76    
 69.15    71.58    73.95    76.36    78.68    80.87    82.88    84.66    86.30    87.73    
 89.00    90.07    90.80    91.19    91.22    90.86    90.08    88.87    87.28    85.36    
 83.11    80.59    77.79    74.70    71.39    67.90    64.28    60.67    56.96    53.21    
 50.80    
47774.90 45305.85 43994.57 43195.61 39648.68 33589.79 29246.73 24949.48 19262.51 15792.71 
 11948.64 8099.89  4251.14  2186.21  140.77   78.52    36.95    26.63    20.72    17.02    
 14.80    12.88    11.28    10.41    9.69     9.07     8.41     7.83     7.36     7.07     
 7.04     6.85     6.42     5.81     5.27     5.09     4.96     4.94     4.72     4.69     
 4.65     4.56     4.31     4.20     4.16     4.16     4.16     4.13     4.03     3.90     
 3.81     3.74     3.68     3.58     3.52     3.43     3.29     3.20     3.14     3.04     
 2.98     2.97     2.94     2.88     2.80     2.73     2.65     2.58     2.52     2.48     
 2.45     2.42     2.40     2.37     2.35     2.34     2.34     2.34     2.36     2.41     
 2.47     2.54     2.61     2.71     2.87     3.05     3.18     3.31     3.44     3.57     
 3.72     3.89     4.06     4.25     4.43     4.62     4.84     5.08     5.37     5.70     
 6.07     6.48     6.93     7.41     7.91     8.45     9.03     9.62     10.26    10.91    
 11.58    12.29    13.01    13.74    14.51    15.29    16.10    16.92    17.78    18.70    
 19.66    20.65    21.74    22.88    24.06    25.33    26.68    28.07    29.48    30.91    
 32.38    33.90    35.44    36.99    38.51    40.03    41.58    43.11    44.62    46.12    
 47.63    49.20    50.87    52.62    54.44    56.35    58.34    60.35    62.46    64.72    
 67.09    69.51    71.93    74.32    76.66    78.98    81.12    83.07    84.85    86.44    
 87.76    88.88    89.72    90.18    90.28    89.93    89.18    87.95    86.32    84.28    
 81.96    79.31    76.50    73.53    70.47    67.31    64.20    61.10    57.95    54.53    
 50.80    
