IESNA:LM-63-2002
[TEST] 1
[TESTLAB] AOK
[TESTDATE] 2022-05-27
[ISSUEDATE] 2022-05-27 09:24:44
[NEARFIELD] 
[LAMPPOSITION] 0,0
[OTHER] EVERFINE GO-2000A_V1 SYSTEM
[MANUFAC] AOK
[LUMCAT] A
[LUMINAIRE] AOK-600WiSF-HV-S5-00-5070-15D-
[LAMPCAT] B
[LAMP] 5050
[BALLAST] E
[BALLASTCAT] F
[OTHER] 
[OTHER] Gamma(deg)    Fz(lm)      Ft(lm)     %Lum    %Lamp
[OTHER]   0- 10     35214.87    35214.87    47.73    47.73
[OTHER]  10- 20     17228.15    52443.02    71.08    71.08
[OTHER]  20- 30      6497.51    58940.53    79.89    79.89
[OTHER]  30- 40      4405.21    63345.74    85.86    85.86
[OTHER]  40- 50      3576.53    66922.27    90.71    90.71
[OTHER]  50- 60      2811.00    69733.27    94.52    94.52
[OTHER]  60- 70      1916.62    71649.89    97.12    97.12
[OTHER]  70- 80       966.67    72616.56    98.43    98.43
[OTHER]  80- 90       363.57    72980.13    98.92    98.92
[OTHER]  90-100       180.01    73160.14    99.17    99.17
[OTHER] 100-110       144.61    73304.75    99.36    99.36
[OTHER] 110-120       129.28    73434.03    99.54    99.54
[OTHER] 120-130       100.25    73534.28    99.67    99.67
[OTHER] 130-140        69.67    73603.95    99.77    99.77
[OTHER] 140-150        49.56    73653.50    99.83    99.83
[OTHER] 150-160        55.25    73708.75    99.91    99.91
[OTHER] 160-170        50.40    73759.15    99.98    99.98
[OTHER] 170-180        16.27    73775.42   100.00   100.00
[OTHER] 
TILT=NONE
1 73775 1 181 25 1 2 0.150 0.200 0.000
1.000 1 603.739
0.0    1.0    2.0    3.0    4.0    5.0    6.0    7.0    8.0    9.0    
 10.0   11.0   12.0   13.0   14.0   15.0   16.0   17.0   18.0   19.0   
 20.0   21.0   22.0   23.0   24.0   25.0   26.0   27.0   28.0   29.0   
 30.0   31.0   32.0   33.0   34.0   35.0   36.0   37.0   38.0   39.0   
 40.0   41.0   42.0   43.0   44.0   45.0   46.0   47.0   48.0   49.0   
 50.0   51.0   52.0   53.0   54.0   55.0   56.0   57.0   58.0   59.0   
 60.0   61.0   62.0   63.0   64.0   65.0   66.0   67.0   68.0   69.0   
 70.0   71.0   72.0   73.0   74.0   75.0   76.0   77.0   78.0   79.0   
 80.0   81.0   82.0   83.0   84.0   85.0   86.0   87.0   88.0   89.0   
 90.0   91.0   92.0   93.0   94.0   95.0   96.0   97.0   98.0   99.0   
 100.0  101.0  102.0  103.0  104.0  105.0  106.0  107.0  108.0  109.0  
 110.0  111.0  112.0  113.0  114.0  115.0  116.0  117.0  118.0  119.0  
 120.0  121.0  122.0  123.0  124.0  125.0  126.0  127.0  128.0  129.0  
 130.0  131.0  132.0  133.0  134.0  135.0  136.0  137.0  138.0  139.0  
 140.0  141.0  142.0  143.0  144.0  145.0  146.0  147.0  148.0  149.0  
 150.0  151.0  152.0  153.0  154.0  155.0  156.0  157.0  158.0  159.0  
 160.0  161.0  162.0  163.0  164.0  165.0  166.0  167.0  168.0  169.0  
 170.0  171.0  172.0  173.0  174.0  175.0  176.0  177.0  178.0  179.0  
 180.0  
0.0    15.0   30.0   45.0   60.0   75.0   90.0   105.0  120.0  135.0  
 150.0  165.0  180.0  195.0  210.0  225.0  240.0  255.0  270.0  285.0  
 300.0  315.0  330.0  345.0  360.0  
585122.25 584438.68 580275.97 567486.81 488410.75 403533.77 315688.70 215756.01 146104.03 106527.45 
 67304.97 28082.49 14257.49 716.21   400.61   226.15   51.69    37.04    28.30    22.53    
 19.01    16.72    14.77    13.12    12.13    11.08    10.05    9.71     9.45     10.04    
 10.44    9.85     8.81     7.82     7.44     7.19     7.13     6.75     6.73     6.39     
 6.11     5.95     5.82     5.47     5.25     5.21     5.18     4.99     4.73     4.52     
 4.47     4.39     4.39     4.32     4.29     4.28     4.12     4.02     3.97     3.92     
 3.77     3.69     3.65     3.59     3.50     3.41     3.36     3.32     3.29     3.25     
 3.24     3.21     3.19     3.16     3.13     3.12     3.10     3.11     3.11     3.12     
 3.13     3.13     3.25     3.44     3.55     3.66     3.76     3.81     3.86     3.90     
 3.96     4.02     4.07     4.07     4.13     4.20     4.30     4.43     4.61     4.81     
 5.04     5.30     5.60     5.95     6.31     6.71     7.13     7.58     8.06     8.53     
 8.99     9.42     9.84     10.26    10.70    11.18    11.67    12.21    12.80    13.43    
 14.06    14.73    15.44    16.16    16.92    17.72    18.58    19.47    20.40    21.36    
 22.34    23.37    24.47    25.58    26.70    27.86    29.14    30.53    32.03    33.70    
 35.59    37.72    40.24    43.33    46.99    51.33    56.49    62.84    71.02    81.12    
 93.44    107.98   124.78   143.08   162.85   183.09   203.56   224.50   245.30   266.10   
 284.53   301.00   314.30   323.34   328.02   328.55   325.41   319.25   310.90   301.01   
 290.12   278.35   265.79   252.79   239.61   226.01   211.92   197.40   181.88   165.44   
 148.11   
585122.25 583251.99 578223.73 566189.60 508523.07 417654.93 326599.21 235543.51 144866.37 104619.32 
 60653.83 45711.17 30768.50 15825.84 1014.17  772.02   608.36   390.99   274.05   157.68   
 115.82   89.55    71.81    65.77    51.67    40.67    27.72    21.37    17.74    15.09    
 13.39    11.93    10.15    8.37     7.34     6.69     6.25     6.19     6.49     6.93     
 6.91     6.87     6.77     6.62     6.41     6.25     6.09     5.93     5.72     5.54     
 5.37     5.19     4.99     4.84     4.69     4.55     4.47     4.34     4.19     4.09     
 4.02     3.91     3.83     3.73     3.60     3.49     3.40     3.32     3.24     3.11     
 3.01     2.92     2.83     2.76     2.69     2.63     2.58     2.54     2.53     2.53     
 2.53     2.55     2.59     2.63     2.71     2.77     2.85     2.93     3.04     3.14     
 3.23     3.31     3.41     3.52     3.65     3.79     3.95     4.13     4.34     4.56     
 4.82     5.09     5.39     5.70     6.05     6.42     6.79     7.18     7.62     8.07     
 8.53     9.01     9.50     9.98     10.47    11.01    11.58    12.18    12.78    13.40    
 14.06    14.76    15.50    16.25    17.02    17.82    18.67    19.57    20.51    21.51    
 22.53    23.58    24.67    25.75    26.89    28.09    29.40    30.85    32.40    34.12    
 36.20    38.52    41.19    44.33    48.01    52.45    57.76    64.39    72.54    83.01    
 95.57    111.67   127.80   146.52   166.49   186.86   207.84   228.30   248.84   268.55   
 287.02   303.29   315.89   324.67   328.57   328.45   324.98   318.67   310.31   300.51   
 289.70   278.16   266.09   253.45   240.91   228.31   214.66   200.22   183.89   165.39   
 148.11   
585122.25 581273.34 573918.69 558138.52 520240.59 424467.11 330467.77 237569.72 162506.66 123298.93 
 84515.99 45733.06 28911.86 17542.15 12076.85 6673.95  1271.05  868.03   528.67   385.45   
 288.74   220.59   171.56   128.03   105.29   82.78    71.34    61.34    52.69    43.50    
 38.20    33.66    29.76    26.72    24.03    20.33    17.18    15.56    14.59    13.92    
 13.49    12.88    12.44    11.92    11.22    10.44    9.73     9.10     8.22     7.56     
 6.83     5.93     5.48     5.34     5.23     5.10     4.88     4.64     4.38     4.11     
 3.93     3.81     3.68     3.53     3.38     3.24     3.12     3.00     2.91     2.84     
 2.76     2.71     2.65     2.59     2.54     2.49     2.44     2.40     2.38     2.38     
 2.38     2.42     2.47     2.54     2.60     2.67     2.76     2.86     2.96     3.08     
 3.21     3.35     3.50     3.67     3.85     4.04     4.24     4.44     4.66     4.89     
 5.13     5.38     5.65     5.94     6.25     6.58     6.93     7.31     7.70     8.11     
 8.54     8.99     9.46     9.93     10.44    10.95    11.51    12.06    12.66    13.28    
 13.92    14.58    15.28    15.98    16.70    17.44    18.24    19.09    19.95    20.86    
 21.80    22.80    23.87    25.02    26.26    27.61    29.11    30.77    32.66    34.76    
 37.04    39.63    42.60    46.11    50.19    54.99    60.82    68.12    77.29    88.30    
 101.12   116.02   132.91   151.18   171.06   191.33   211.56   233.02   254.49   273.67   
 290.86   305.22   315.79   322.41   325.13   324.30   320.39   314.16   306.03   296.45   
 286.07   274.99   262.82   250.33   238.15   224.71   210.31   195.41   179.52   162.92   
 148.11   
585122.25 580220.32 571136.17 553434.68 517319.53 459589.33 358652.06 276077.53 193690.23 136410.63 
 99045.48 65477.84 51940.32 39229.78 26519.24 13890.39 10097.28 5722.72  1388.14  1056.84  
 771.86   546.74   378.08   302.07   226.05   150.39   113.91   91.65    77.54    67.25    
 58.98    51.79    46.09    41.40    37.54    34.20    31.27    28.60    26.24    23.88    
 21.03    17.80    15.57    14.20    13.25    12.45    11.70    11.04    10.48    9.86     
 9.15     8.52     7.91     7.43     7.00     6.65     6.35     6.05     5.76     5.50     
 5.22     4.98     4.77     4.58     4.39     4.21     4.02     3.80     3.59     3.39     
 3.20     3.02     2.86     2.71     2.58     2.47     2.38     2.27     2.18     2.16     
 2.16     2.19     2.24     2.30     2.38     2.46     2.56     2.66     2.78     2.91     
 3.05     3.19     3.35     3.53     3.71     3.91     4.11     4.33     4.56     4.80     
 5.08     5.35     5.63     5.93     6.25     6.58     6.94     7.30     7.66     8.05     
 8.46     8.88     9.32     9.73     10.19    10.68    11.17    11.70    12.20    12.72    
 13.26    13.82    14.41    15.01    15.61    16.24    16.90    17.61    18.34    19.12    
 19.96    20.89    21.91    23.00    24.19    25.53    27.03    28.71    30.53    32.63    
 35.04    37.77    40.81    44.41    48.65    53.81    60.05    67.65    76.77    87.98    
 100.74   116.60   132.49   150.58   170.09   190.10   210.89   231.06   250.66   268.71   
 284.52   297.52   307.27   313.82   316.86   316.84   314.01   308.78   301.62   292.92   
 283.44   272.51   261.10   249.03   236.61   223.53   209.93   196.06   181.50   166.93   
 148.11   
585122.25 578442.92 565489.85 540662.20 495281.40 431982.80 357346.18 284399.76 216374.75 157133.62 
 117003.32 91649.80 66462.51 52212.33 40608.48 28090.76 22460.91 18600.45 12163.69 9713.64  
 7312.76  4372.80  3263.84  1395.00  1000.49  622.27   472.90   356.57   257.00   196.15   
 158.89   133.95   115.94   98.01    85.26    73.36    63.53    55.49    48.51    43.05    
 38.30    34.53    31.29    28.36    25.80    23.75    21.69    19.56    17.67    15.43    
 13.09    11.67    10.82    10.15    9.57     9.08     8.69     8.34     8.02     7.74     
 7.48     7.25     7.01     6.79     6.61     6.45     6.29     6.14     5.98     5.81     
 5.60     5.34     5.08     4.76     4.41     4.06     3.71     3.38     3.05     2.66     
 2.46     2.43     2.43     2.49     2.56     2.64     2.74     2.85     2.97     3.10     
 3.25     3.40     3.57     3.75     3.95     4.17     4.40     4.64     4.89     5.17     
 5.44     5.73     6.04     6.37     6.69     7.03     7.37     7.73     8.10     8.48     
 8.88     9.28     9.69     10.12    10.57    11.03    11.50    11.98    12.47    12.97    
 13.46    13.97    14.51    15.05    15.60    16.15    16.73    17.34    17.95    18.61    
 19.31    20.08    20.91    21.83    22.84    23.94    25.29    26.81    28.54    30.53    
 32.79    35.42    38.55    42.36    46.94    52.50    59.28    67.47    77.45    89.00    
 102.18   117.00   133.50   151.16   169.91   188.88   207.76   226.43   243.83   261.21   
 275.01   286.60   295.70   302.15   305.79   306.62   304.89   300.74   294.69   287.45   
 279.81   270.42   259.75   248.66   237.10   224.63   211.84   199.35   186.17   173.11   
 148.11   
585122.25 577853.84 564079.68 537393.76 491958.07 427274.00 354095.55 294001.57 233907.56 173988.03 
 136659.65 109238.39 89031.85 72776.03 59454.85 48411.04 38504.79 29937.85 25359.47 20788.65 
 17235.96 13877.21 10818.32 8871.20  7432.95  6136.39  5027.39  4253.75  3694.91  3183.62  
 2737.27  2291.77  1956.68  1672.78  1415.64  1151.95  927.38   735.27   568.51   435.19   
 341.67   285.03   228.39   171.95   140.17   114.50   93.30    77.15    65.46    55.95    
 48.91    43.16    38.10    34.15    30.81    27.87    25.56    23.64    22.09    20.52    
 19.29    18.12    16.70    15.46    14.11    13.56    13.31    13.07    12.94    12.82    
 12.68    12.51    12.29    12.16    11.96    11.69    11.26    10.45    9.33     7.74     
 5.95     3.06     2.05     2.07     2.12     2.20     2.28     2.36     2.45     2.55     
 2.67     2.80     2.94     3.10     3.27     3.45     3.65     3.84     4.07     4.29     
 4.55     4.80     5.07     5.35     5.63     5.94     6.26     6.59     6.93     7.30     
 7.67     8.07     8.47     8.86     9.27     9.68     10.12    10.59    11.04    11.50    
 11.99    12.49    13.00    13.49    14.00    14.50    15.02    15.54    16.08    16.61    
 17.17    17.77    18.40    19.11    19.92    20.83    21.93    23.19    24.64    26.36    
 28.50    31.01    34.01    37.77    42.30    48.04    54.96    63.40    73.23    84.91    
 97.88    113.33   128.78   145.75   163.42   181.18   199.24   216.20   232.71   247.73   
 261.21   272.93   282.67   290.60   296.07   299.57   301.61   300.62   296.53   291.59   
 285.39   278.38   269.14   259.02   247.94   235.85   223.76   211.27   198.61   185.99   
 148.11   
585122.25 577828.61 564607.43 539084.53 494355.00 431117.26 359029.17 298992.47 238955.80 179140.67 
 140440.96 111975.96 91484.41 75404.54 62249.58 51667.39 43091.85 36227.12 30681.66 26745.73 
 22809.79 18885.65 16065.12 13682.03 11739.08 10332.46 9340.97  8596.24  8030.45  7566.33  
 7154.84  6784.18  6396.61  6047.70  5742.08  5435.39  5138.86  4870.47  4619.42  4372.28  
 4122.86  3880.20  3657.45  3482.39  3309.62  3130.81  2939.05  2751.33  2571.98  2392.84  
 2231.40  2069.53  1906.87  1751.20  1597.72  1455.02  1316.89  1185.80  1059.59  937.40   
 833.06   734.08   637.50   547.27   459.55   379.64   307.26   249.03   190.96   146.99   
 110.20   80.25    58.51    41.52    27.42    15.58    6.99     3.54     2.71     2.48     
 1.95     1.63     1.54     1.46     1.40     1.35     1.29     1.24     1.15     1.04     
 0.96     0.84     0.72     0.72     0.73     0.73     0.75     0.78     0.80     0.83     
 0.87     0.90     0.94     0.98     1.03     1.08     1.12     1.17     1.24     1.29     
 1.35     1.40     1.45     1.52     1.58     1.65     1.71     1.78     1.85     1.93     
 2.00     2.08     2.16     2.24     2.32     2.41     2.50     2.60     2.70     2.80     
 2.92     3.04     3.17     3.33     3.50     3.69     3.92     4.18     4.50     4.87     
 5.34     5.91     6.56     7.41     8.41     9.61     10.95    12.43    14.06    15.89    
 17.88    19.99    22.27    24.71    27.29    29.88    32.64    35.40    38.15    40.89    
 43.60    46.28    48.98    51.62    54.24    56.86    59.45    62.25    65.12    69.25    
 72.76    76.88    82.09    88.68    96.61    105.87   117.31   129.87   144.13   159.26   
 148.11   
585122.25 577376.15 563525.80 537872.22 494373.49 435105.04 366019.83 298403.37 237374.21 186619.55 
 147347.66 118786.24 100469.06 82236.87 68928.62 58400.26 50085.34 43252.59 37477.78 32444.04 
 28050.58 24155.70 20875.45 17882.21 15470.58 13643.06 12254.77 11498.01 10745.92 9993.83  
 9512.07  9116.49  8784.73  8476.92  8212.95  7981.89  7772.51  7558.55  7340.78  7135.06  
 6938.96  6731.08  6531.79  6340.13  6163.20  5981.24  5787.74  5598.90  5434.71  5285.00  
 5137.79  4996.13  4852.15  4703.79  4553.41  4392.70  4233.49  4077.46  3927.02  3776.62  
 3616.69  3462.27  3314.21  3164.23  3008.29  2846.34  2679.98  2519.53  2355.16  2196.71  
 2044.66  1894.25  1744.26  1590.69  1441.45  1304.14  1176.05  1064.14  952.37   850.82   
 761.70   684.43   612.56   551.66   499.77   453.50   415.91   383.39   357.32   329.48   
 302.64   280.46   267.51   256.52   239.12   222.58   208.18   194.35   182.74   171.03   
 160.47   151.41   143.10   135.81   128.70   122.07   115.44   110.41   105.21   99.30    
 94.00    88.76    83.40    78.35    73.37    68.21    63.55    58.99    54.65    50.36    
 46.28    42.21    38.02    33.78    29.45    25.25    21.18    16.88    12.82    8.75     
 6.61     5.05     3.71     2.70     2.39     2.38     2.51     2.69     2.91     3.17     
 3.49     3.90     4.43     5.07     5.93     6.98     8.17     9.50     11.10    12.83    
 14.74    16.77    19.00    21.37    23.81    26.30    28.87    31.39    33.89    36.25    
 38.54    40.76    42.85    44.86    46.81    48.72    50.79    52.95    55.85    58.76    
 61.66    65.21    69.79    75.64    83.00    91.94    103.26   116.85   131.74   148.15   
 148.11   
585122.25 578732.22 567150.65 546392.76 510431.59 459121.20 396587.21 330801.40 276562.94 222324.45 
 168329.24 136960.76 114243.74 96696.15 82550.55 71476.03 62926.20 55688.11 49323.40 43764.14 
 38745.02 34047.78 29814.86 26532.42 23249.99 19978.89 17678.28 15734.11 14172.01 12889.96 
 11897.29 11109.36 10539.77 10131.04 9850.52  9616.49  9391.52  9161.50  8939.55  8730.74  
 8526.72  8326.16  8139.61  7941.13  7739.59  7548.22  7344.58  7143.02  6949.81  6759.54  
 6581.99  6409.29  6243.11  6061.14  5874.24  5679.92  5496.60  5303.68  5103.24  4904.38  
 4704.18  4492.19  4287.39  4087.40  3892.68  3696.65  3502.16  3302.45  3097.05  2879.82  
 2668.53  2457.46  2264.86  2078.73  1898.97  1717.34  1550.57  1397.37  1250.87  1119.67  
 998.01   893.37   802.11   724.92   664.22   612.51   571.16   532.02   501.35   469.26   
 439.12   411.93   388.60   370.41   354.53   339.40   325.58   311.49   299.28   288.14   
 277.16   267.93   259.39   251.58   244.25   237.16   230.10   224.53   219.69   214.99   
 210.55   206.34   202.51   198.57   194.66   191.14   187.30   183.70   179.94   176.11   
 172.36   168.40   164.13   159.89   155.41   150.66   146.01   141.28   136.36   131.36   
 126.30   121.33   116.40   111.02   105.76   100.14   94.09    87.93    82.31    76.41    
 70.28    64.59    58.86    52.99    47.34    43.38    35.43    15.61    11.83    10.43    
 11.56    13.52    15.79    18.26    20.90    23.69    26.54    29.44    32.38    35.30    
 38.13    40.82    43.34    45.78    48.05    50.10    51.91    53.65    55.28    57.01    
 59.04    62.17    65.50    69.74    75.33    83.45    93.66    106.45   121.34   138.22   
 148.11   
585122.25 579028.47 567943.04 549090.05 518937.64 473755.63 416222.49 351642.12 288333.55 229841.26 
 182971.83 148890.06 124256.38 107847.22 91504.22 80473.61 72103.62 64897.87 58450.63 52108.97 
 46523.60 41240.32 36561.92 32140.72 28324.20 25079.84 22367.96 19974.06 17866.91 16081.09 
 14534.36 13288.86 12329.44 11804.85 11284.04 10763.22 10405.30 10068.25 9754.19  9488.85  
 9251.11  9028.39  8815.77  8608.44  8408.73  8206.69  8016.61  7835.81  7649.90  7446.76  
 7248.84  7059.18  6866.81  6684.38  6498.46  6301.73  6084.55  5863.61  5631.45  5401.61  
 5175.77  4953.37  4724.81  4473.86  4237.06  4014.74  3793.76  3565.20  3330.99  3095.54  
 2868.06  2657.82  2443.91  2230.97  2028.41  1835.92  1643.92  1468.29  1308.75  1185.68  
 1061.04  936.37   840.90   763.23   700.21   648.66   597.57   555.28   522.56   493.15   
 462.48   431.93   407.52   386.14   369.12   357.32   348.58   341.29   333.49   325.69   
 318.15   311.08   305.31   300.02   295.25   291.43   288.22   285.58   283.06   280.33   
 277.69   275.09   273.30   271.61   269.88   268.28   266.59   264.69   262.78   261.00   
 259.05   256.97   254.08   250.27   246.24   242.13   237.62   232.64   227.50   222.48   
 217.58   212.34   206.88   201.16   195.23   189.38   183.40   177.03   170.62   163.90   
 156.73   150.31   143.85   137.57   131.07   123.03   114.98   106.73   100.04   94.13    
 86.56    79.69    72.18    68.93    66.01    49.87    32.19    32.13    33.85    35.96    
 37.90    40.02    43.02    46.20    49.37    52.38    54.99    57.12    58.93    60.40    
 61.73    63.05    64.78    67.37    71.34    77.60    86.27    97.89    112.08   128.86   
 148.11   
585122.25 580614.68 571679.47 557571.13 535091.20 500057.44 451444.24 389119.32 321294.86 262519.73 
 203950.45 164563.13 135417.23 113776.58 98058.33 85440.59 75366.17 66948.86 59721.28 53381.92 
 47732.43 42312.08 36979.39 32469.72 28744.78 26223.09 23701.39 21190.45 19563.78 18316.38 
 17144.21 16089.09 15198.59 14440.75 13812.10 13215.92 12669.42 12111.91 11667.28 11264.78 
 10887.70 10537.00 10219.77 9911.56  9627.02  9354.70  9104.20  8844.40  8573.02  8300.21  
 8041.41  7787.40  7534.42  7268.22  7001.30  6735.70  6480.10  6228.38  5965.74  5690.36  
 5450.54  5217.84  4981.81  4733.05  4486.50  4233.67  3979.78  3738.22  3492.62  3243.21  
 3009.37  2778.01  2546.66  2315.49  2100.18  1902.94  1713.54  1536.80  1367.53  1221.44  
 1094.24  981.52   881.97   803.22   735.11   678.01   623.13   574.56   538.92   507.58   
 476.31   444.03   413.37   389.18   368.02   351.86   338.78   331.20   332.12   338.30   
 341.77   341.03   339.95   339.39   339.40   340.01   341.28   342.84   344.75   346.57   
 348.58   351.44   353.92   356.56   358.90   360.44   360.61   360.17   359.24   357.14   
 353.44   347.48   340.36   333.11   326.38   319.65   312.79   305.85   298.95   292.22   
 285.67   279.18   273.10   266.76   260.11   253.12   246.28   237.22   228.16   218.95   
 209.87   200.21   192.31   184.07   177.07   169.86   163.43   157.00   150.64   145.24   
 138.82   132.67   122.32   115.97   110.86   106.86   99.41    91.34    88.57    81.40    
 44.94    41.65    44.16    46.88    49.92    53.36    56.98    60.33    63.17    65.37    
 66.96    68.17    69.16    70.34    72.50    76.10    82.19    91.60    104.35   120.11   
 148.11   
585122.25 580957.34 572964.21 561771.64 545007.60 516153.86 469345.01 405476.73 334920.57 266043.83 
 208499.59 166689.09 136652.17 118495.05 100433.63 82372.22 71968.91 63900.59 57103.31 50950.39 
 45558.39 40663.56 36310.94 32647.31 29772.85 27526.13 26032.50 24829.02 23703.38 22677.26 
 21640.25 20595.22 19676.63 18834.30 18012.41 17230.25 16412.80 15595.07 14795.35 14056.78 
 13413.64 12874.15 12323.78 11978.87 11410.97 10841.09 10412.09 9993.48  9609.85  9218.87  
 8836.11  8474.38  8135.29  7808.04  7488.11  7137.38  6736.26  6364.39  6045.31  5745.11  
 5472.75  5208.55  4960.10  4691.78  4450.52  4215.12  3986.58  3761.31  3527.25  3291.10  
 3048.93  2809.11  2563.96  2327.31  2107.57  1904.41  1719.44  1540.65  1378.35  1234.24  
 1116.19  998.36   901.93   822.31   754.66   695.85   638.28   588.45   551.37   518.38   
 486.84   449.66   417.84   387.18   363.92   342.85   327.08   314.94   306.76   307.12   
 318.99   335.50   350.74   364.95   377.63   388.01   397.13   404.90   411.35   417.75   
 424.32   430.81   437.90   445.39   450.72   452.96   452.46   449.87   444.72   437.94   
 429.60   420.20   409.16   398.01   386.35   374.94   364.27   353.60   343.65   334.24   
 325.62   317.13   308.94   300.58   292.87   275.06   263.95   258.29   252.07   245.23   
 239.24   232.41   225.01   216.84   208.87   200.73   192.71   185.01   177.39   168.99   
 162.45   157.18   152.17   147.08   138.54   131.34   126.44   121.56   115.73   106.01   
 98.16    91.51    50.30    50.34    54.12    57.54    61.09    64.92    68.30    71.36    
 73.74    75.29    76.27    77.00    78.26    81.19    86.70    95.75    107.80   123.44   
 148.11   
585122.25 582483.50 576421.37 568420.36 556873.36 536277.03 496354.09 437074.73 365599.19 302815.94 
 240032.72 177555.58 142885.75 116876.65 97505.41 83147.83 72144.30 64122.02 57380.05 51673.68 
 46927.10 42756.49 39183.43 36014.40 33625.53 32059.54 30911.59 30034.26 29323.17 28642.83 
 27895.43 26950.55 25854.75 24703.62 23552.03 22358.79 21138.16 19870.35 18645.88 17561.15 
 16544.11 15626.23 14772.60 14050.68 13421.39 12828.49 12228.37 11592.45 10978.41 10386.65 
 9849.63  9369.08  8922.60  8480.67  8015.51  7588.02  6974.57  6440.38  6146.76  5901.47  
 5644.15  5385.26  5096.73  4806.75  4528.34  4251.29  3984.81  3732.85  3487.78  3249.57  
 3016.18  2783.80  2551.43  2319.44  2119.19  1925.01  1743.27  1566.51  1407.44  1263.45  
 1136.78  1020.31  923.60   838.66   768.12   704.58   646.32   592.02   552.58   516.50   
 484.19   450.21   416.22   382.20   355.76   333.12   314.07   300.06   288.35   280.78   
 283.33   299.76   326.50   353.06   375.23   394.66   411.83   427.45   439.37   448.41   
 452.47   452.80   451.62   449.78   447.03   444.09   440.24   435.21   429.31   422.17   
 413.34   404.09   394.70   384.89   375.08   366.18   357.46   349.00   340.98   333.22   
 325.54   317.92   310.33   302.70   295.07   287.74   276.86   260.66   254.61   249.14   
 242.46   235.77   229.09   222.21   215.47   208.62   201.81   195.17   188.52   181.82   
 174.75   168.52   163.29   158.63   154.16   149.81   144.78   136.80   126.05   121.17   
 107.13   99.13    85.44    54.53    57.85    61.16    65.26    69.46    73.54    77.29    
 80.37    82.61    84.09    84.80    85.16    86.59    90.17    97.19    109.67   127.44   
 148.11   
585122.25 583070.38 578123.29 571482.72 561964.76 543959.14 507545.04 450663.03 379885.87 302942.99 
 233811.63 183348.15 146559.81 119824.41 102080.50 84406.75 73111.87 64875.30 58033.19 52140.70 
 47062.70 42607.40 38725.42 35285.26 32555.92 30758.24 29599.87 28794.44 28215.45 27753.73 
 27201.88 26442.79 25519.05 24538.26 23449.75 22312.66 21067.90 19758.68 18512.00 17381.37 
 16358.98 15357.49 14459.36 13629.67 12919.70 12274.31 11699.03 11124.33 10549.63 10046.02 
 9597.77  9184.90  8775.59  8377.57  8051.28  7778.37  7338.05  6750.13  6322.08  6000.89  
 5726.47  5463.19  5213.35  4936.29  4678.68  4437.75  4198.19  3965.07  3726.37  3474.33  
 3215.74  2963.95  2715.30  2477.67  2252.20  2049.78  1852.00  1661.91  1493.22  1342.84  
 1210.32  1095.53  980.87   892.44   816.91   752.41   692.13   635.53   591.39   555.04   
 521.53   485.19   451.38   417.24   389.56   364.00   343.36   327.84   314.31   305.96   
 308.57   324.67   345.66   363.35   375.46   382.75   385.79   386.04   385.04   384.08   
 383.21   381.90   380.89   379.97   378.40   375.35   371.25   365.64   359.14   352.02   
 345.32   339.02   332.38   325.83   319.48   312.97   306.94   301.12   295.11   289.42   
 283.52   277.53   271.41   265.42   259.30   251.80   240.20   234.60   229.61   224.89   
 220.18   214.68   209.13   203.41   197.42   192.08   186.92   181.24   175.82   169.62   
 164.32   160.04   155.54   150.91   143.46   137.68   133.38   127.44   121.48   104.97   
 99.48    95.65    58.18    57.69    61.09    65.50    70.37    75.09    79.51    83.32    
 86.54    89.14    91.10    92.36    93.36    94.50    97.28    103.13   112.90   127.42   
 148.11   
585122.25 584606.22 581086.65 575434.75 567400.35 552592.72 522671.23 474124.09 408644.03 334132.35 
 268474.32 203076.83 161389.91 130795.74 109330.13 93005.02 80203.40 70415.90 62552.28 56013.91 
 50198.05 44877.81 39840.35 35244.63 31450.38 28322.48 26512.03 24701.58 22901.82 21959.53 
 21101.34 20221.36 19293.71 18466.73 17788.00 17116.92 16340.44 15566.03 14797.55 14086.40 
 13428.50 12849.39 12315.05 11821.92 11340.24 10874.74 10453.64 10078.35 9732.53  9361.73  
 8986.83  8639.19  8317.45  8009.35  7695.99  7383.28  7094.13  6823.44  6547.92  6237.52  
 5937.56  5670.03  5422.83  5162.29  4895.57  4621.57  4338.03  4065.10  3806.34  3554.22  
 3319.84  3088.63  2852.65  2616.68  2381.03  2171.09  1963.90  1770.60  1590.90  1426.61  
 1276.71  1141.12  1022.77  922.45   838.35   767.18   705.98   650.32   601.76   564.39   
 531.54   500.19   466.55   434.66   406.79   382.42   361.15   345.15   331.83   327.90   
 333.73   339.63   340.25   337.61   334.37   331.36   328.81   325.92   322.67   319.22   
 315.54   312.25   309.06   306.26   303.76   301.53   298.98   295.87   292.89   290.17   
 286.89   283.03   278.73   273.82   269.04   264.31   259.67   254.85   249.98   245.33   
 239.82   234.31   229.13   224.61   219.87   215.06   210.54   205.60   201.02   195.99   
 190.08   183.43   176.89   169.34   163.23   157.81   153.28   148.85   144.82   142.31   
 137.76   132.96   124.57   118.67   114.36   109.32   104.82   98.12    93.51    84.74    
 56.24    51.95    55.09    59.12    64.23    69.70    75.01    80.11    84.79    88.98    
 92.76    96.28    99.05    101.32   103.25   104.98   108.10   113.29   121.03   131.92   
 148.11   
585122.25 585242.13 582210.34 576798.78 567935.81 551903.38 522193.31 475776.00 414535.08 341677.67 
 270071.15 212075.01 167638.25 135921.66 118818.88 101830.38 84841.87 74916.82 66670.03 59398.38 
 53091.59 47442.90 42154.64 37248.07 32635.72 28679.71 25462.76 22769.45 20494.48 18673.45 
 17167.34 15883.20 14776.36 13898.20 13197.38 12625.61 12158.56 11794.18 11430.59 11067.01 
 10753.60 10433.01 10141.82 9884.42  9644.69  9420.87  9179.81  8932.54  8690.07  8446.43  
 8198.20  7954.10  7717.30  7483.81  7258.01  7025.02  6777.01  6522.82  6252.41  5985.50  
 5729.95  5476.39  5225.78  4969.55  4720.94  4481.68  4252.61  4010.70  3761.81  3520.95  
 3273.27  3051.83  2827.96  2607.90  2388.29  2181.19  1981.07  1781.42  1597.93  1433.57  
 1283.91  1162.08  1040.47  918.85   829.13   756.41   692.98   639.59   592.16   555.62   
 524.34   493.10   461.83   430.72   405.11   383.77   366.54   354.95   348.06   341.48   
 333.38   325.48   316.80   309.64   302.88   296.51   290.87   285.42   280.38   275.81   
 271.59   267.64   263.52   259.14   255.40   252.07   248.82   245.89   242.56   239.57   
 236.72   233.82   230.75   227.77   224.53   220.71   216.68   212.34   208.23   204.10   
 200.02   195.51   191.03   186.43   181.69   177.39   172.52   167.48   162.48   157.26   
 151.58   145.44   138.95   133.07   126.26   119.44   113.28   105.07   98.19    91.38    
 84.91    79.46    73.20    69.22    66.41    62.62    37.46    36.58    38.86    42.48    
 46.79    52.25    57.99    63.81    69.31    74.66    79.55    83.94    87.92    91.55    
 95.29    99.29    102.92   106.22   108.79   111.70   116.27   122.57   130.48   140.31   
 148.11   
585122.25 587016.41 585287.29 580405.45 571693.38 555780.54 527465.90 484919.64 428363.09 360787.06 
 299546.95 238306.86 177336.54 140383.73 115143.07 96762.58 83092.16 72165.87 63989.20 57116.28 
 51062.40 45053.25 39502.03 34287.82 30000.30 26627.57 23254.84 19894.76 17575.19 15807.49 
 14432.83 13317.00 12379.72 11664.23 11132.27 10722.61 10377.82 10056.10 9775.20  9531.29  
 9310.62  9077.99  8875.95  8683.31  8499.90  8311.22  8120.79  7918.61  7711.97  7504.50  
 7295.44  7087.30  6889.34  6698.34  6506.39  6312.48  6124.29  5942.17  5760.05  5578.04  
 5371.40  5163.50  4952.47  4748.62  4538.39  4317.89  4099.37  3875.62  3654.37  3440.30  
 3218.69  3007.99  2797.83  2587.68  2377.74  2184.98  1985.89  1802.39  1627.81  1466.11  
 1312.45  1166.61  1039.04  928.03   835.15   754.33   687.06   631.65   586.96   549.14   
 518.22   489.75   459.91   434.30   411.04   394.41   380.87   367.13   351.57   336.24   
 322.58   310.23   298.72   287.83   277.64   268.46   260.12   252.43   245.54   238.65   
 231.78   226.50   221.39   216.55   211.57   207.01   202.76   198.54   194.54   190.47   
 186.49   182.31   178.16   173.93   169.25   164.78   160.18   155.12   149.81   144.69   
 139.61   134.13   128.75   123.11   117.59   111.75   105.69   99.85    94.12    88.36    
 82.25    75.74    69.31    62.69    56.60    50.42    44.72    37.97    18.64    13.43    
 12.71    14.03    16.57    19.51    22.87    26.54    30.66    35.14    40.03    45.23    
 50.65    56.13    61.63    67.12    72.37    77.43    82.07    86.45    90.40    94.15    
 97.67    101.66   105.77   109.85   113.47   117.90   123.98   131.17   139.74   149.52   
 148.11   
585122.25 587699.72 586640.64 581913.59 572838.40 555615.92 524678.93 479157.40 418404.63 348444.98 
 277643.69 217064.49 168283.44 132112.87 111877.46 91766.73 71656.00 60676.29 51932.97 44646.61 
 38542.98 33491.83 29000.93 24878.21 21197.93 18128.54 15759.32 13987.87 12666.58 11961.10 
 11261.57 10562.04 10108.32 9723.58  9394.88  9115.64  8882.17  8664.87  8470.50  8279.41  
 8121.50  7961.49  7803.08  7627.69  7447.29  7241.75  7010.49  6788.73  6567.06  6355.92  
 6159.17  5972.50  5793.22  5603.48  5422.14  5246.55  5079.51  4912.53  4745.16  4569.27  
 4398.99  4225.98  4056.12  3880.63  3705.90  3538.05  3374.31  3204.12  3029.43  2851.87  
 2677.53  2499.15  2320.43  2139.19  1963.59  1801.40  1653.48  1506.91  1362.78  1230.00  
 1109.04  988.18   879.13   781.25   702.26   630.81   568.79   513.65   467.46   430.51   
 400.65   375.68   349.28   324.87   308.81   300.95   290.43   274.70   259.05   244.97   
 229.64   217.26   205.65   194.01   183.62   174.60   165.62   156.96   149.73   143.00   
 136.28   130.47   123.94   117.41   111.24   105.26   99.47    94.08    88.43    83.14    
 78.05    73.33    68.16    63.14    58.43    53.66    48.78    43.82    38.98    34.14    
 27.92    21.45    14.98    10.63    8.52     6.77     5.43     4.90     4.92     5.25     
 5.62     6.08     6.61     7.19     7.93     8.87     9.93     11.22    12.83    14.68    
 16.78    19.16    21.84    24.88    28.20    31.74    35.77    39.98    44.53    49.21    
 54.00    58.93    63.79    68.72    73.52    78.34    83.10    87.70    92.23    96.55    
 100.77   105.00   109.52   114.08   118.92   124.88   131.96   140.37   149.94   160.66   
 148.11   
585122.25 588115.40 587292.15 582657.65 572889.82 554990.33 520978.69 469070.88 400720.81 329184.19 
 260097.00 200903.90 154177.17 118624.07 96149.84 73813.89 59580.43 48538.28 39982.02 33480.54 
 28310.99 24173.59 20688.43 17606.56 15026.12 12882.21 11653.82 10434.97 9216.13  8599.35  
 8099.01  7654.27  7267.99  6939.44  6637.52  6362.65  6103.83  5879.04  5657.58  5438.29  
 5236.72  5054.63  4844.86  4641.44  4431.41  4250.81  4066.62  3885.92  3708.80  3530.54  
 3359.04  3195.00  3029.09  2874.16  2727.63  2584.73  2443.84  2318.32  2186.28  2051.02  
 1926.75  1809.61  1685.55  1571.22  1463.70  1356.65  1248.82  1150.38  1052.04  953.71   
 867.72   781.57   698.40   622.18   553.15   487.73   426.29   370.32   321.31   277.90   
 239.33   204.71   174.59   148.70   126.42   97.80    69.10    54.25    42.73    32.11    
 23.80    18.30    13.54    9.14     5.04     3.18     3.03     3.08     3.16     3.25     
 3.36     3.48     3.60     3.71     3.85     3.98     4.10     4.24     4.40     4.57     
 4.75     4.96     5.17     5.39     5.62     5.86     6.13     6.40     6.69     7.00     
 7.31     7.63     7.98     8.33     8.69     9.05     9.43     9.81     10.19    10.56    
 10.95    11.35    11.75    12.17    12.62    13.09    13.62    14.27    15.07    16.01    
 17.11    18.48    20.10    22.21    24.87    28.12    32.09    36.93    42.80    50.04    
 59.41    70.26    82.42    95.58    109.46   124.11   141.12   158.70   176.00   192.59   
 208.23   224.08   238.15   252.19   263.24   272.39   279.35   284.35   286.90   287.02   
 284.77   280.38   274.10   266.30   256.94   246.16   234.39   221.17   206.83   191.54   
 148.11   
585122.25 588878.75 588606.02 584220.00 575056.79 557015.79 522693.75 467261.73 396813.72 321245.09 
 257046.12 192998.25 147355.02 111179.19 83029.94 62355.55 48684.50 39288.32 32192.05 26490.33 
 20800.77 16702.15 13839.57 11446.83 9394.61  7596.22  5983.15  4953.99  4312.48  3804.83  
 3372.87  2949.96  2616.40  2283.51  2033.85  1814.27  1600.96  1391.46  1212.15  1034.00  
 870.50   727.19   607.46   498.72   412.00   332.32   276.97   221.63   166.50   136.18   
 112.45   93.22    80.01    69.31    59.48    51.21    45.56    40.92    37.22    34.01    
 31.18    28.78    26.90    25.37    24.05    22.90    21.56    20.20    19.04    18.44    
 18.29    18.28    18.55    18.90    19.07    19.19    19.51    19.60    19.71    19.44    
 18.41    16.56    13.03    8.30     3.04     2.05     2.09     2.14     2.21     2.29     
 2.37     2.47     2.58     2.71     2.84     2.99     3.15     3.32     3.49     3.68     
 3.87     4.07     4.29     4.50     4.73     4.96     5.21     5.47     5.71     5.98     
 6.26     6.57     6.86     7.16     7.47     7.81     8.16     8.52     8.90     9.26     
 9.63     10.03    10.44    10.83    11.24    11.63    12.05    12.46    12.88    13.29    
 13.70    14.15    14.65    15.17    15.74    16.38    17.12    18.00    19.05    20.23    
 21.70    23.41    25.41    27.83    30.73    34.25    38.49    43.77    50.08    57.97    
 67.07    77.77    89.86    103.27   118.73   134.20   150.78   167.32   184.37   201.03   
 216.91   231.71   244.84   256.83   266.63   274.86   281.01   285.12   286.91   286.42   
 283.78   278.93   272.03   263.53   253.44   242.19   229.73   216.02   200.77   184.51   
 148.11   
585122.25 588244.86 587220.94 581805.56 570625.03 549139.63 492514.50 411209.02 319749.17 245925.45 
 180059.10 127078.48 97356.10 67891.89 45864.08 36009.53 29442.42 19836.08 14553.53 11892.27 
 8688.69  5478.24  4244.40  1726.55  1362.21  1021.68  681.16   508.60   395.55   291.08   
 225.98   188.79   162.13   141.72   125.39   109.11   92.82    81.97    72.79    64.53    
 57.44    50.74    45.75    41.42    37.74    34.33    31.79    29.04    26.74    24.27    
 21.84    18.93    16.31    13.89    12.36    11.30    10.37    9.77     9.35     9.03     
 8.77     8.58     8.32     8.06     7.89     7.81     7.68     7.52     7.40     7.30     
 7.22     7.09     6.89     6.73     6.55     6.26     5.83     5.32     4.80     4.24     
 3.60     2.96     2.58     2.49     2.49     2.52     2.60     2.69     2.78     2.89     
 3.01     3.13     3.29     3.45     3.65     3.85     4.06     4.28     4.51     4.76     
 5.01     5.26     5.53     5.81     6.10     6.40     6.70     7.02     7.34     7.66     
 8.00     8.35     8.71     9.07     9.45     9.83     10.24    10.64    11.06    11.46    
 11.88    12.30    12.74    13.18    13.62    14.05    14.52    14.99    15.47    15.97    
 16.46    17.05    17.67    18.37    19.16    20.03    21.05    22.16    23.49    25.00    
 26.70    28.66    30.91    33.70    37.04    41.03    45.65    51.23    57.88    65.92    
 75.95    87.46    100.39   114.44   129.38   145.45   163.33   181.25   198.51   214.71   
 230.82   246.93   258.98   269.02   277.28   283.01   286.66   288.37   287.96   286.04   
 281.83   275.94   268.44   259.72   249.51   237.66   224.29   209.59   193.51   175.79   
 148.11   
585122.25 588145.33 586875.19 581135.26 564169.44 500158.59 423722.26 348422.85 268794.77 189234.13 
 118694.52 87745.50 61206.12 38832.50 27318.88 15869.21 11337.78 6503.28  1713.38  1388.08  
 1056.41  760.50   566.70   425.46   338.75   252.05   165.74   123.10   99.97    84.54    
 73.30    64.19    56.86    51.83    47.32    43.44    39.92    35.89    32.80    29.91    
 27.00    23.93    20.91    18.13    16.00    14.26    13.04    11.92    11.07    10.42    
 9.86     9.30     8.67     8.07     7.58     7.17     6.78     6.48     6.19     5.87     
 5.61     5.39     5.18     5.00     4.82     4.66     4.44     4.29     4.18     4.09     
 3.98     3.84     3.67     3.52     3.38     3.24     3.11     2.98     2.85     2.74     
 2.68     2.69     2.71     2.73     2.78     2.86     2.92     3.00     3.08     3.18     
 3.28     3.38     3.50     3.65     3.80     3.98     4.16     4.37     4.58     4.81     
 5.05     5.29     5.53     5.81     6.11     6.41     6.72     7.05     7.40     7.74     
 8.11     8.50     8.90     9.29     9.68     10.10    10.54    10.99    11.44    11.87    
 12.35    12.84    13.32    13.81    14.31    14.82    15.35    15.91    16.49    17.10    
 17.74    18.45    19.24    20.10    21.09    22.17    23.38    24.74    26.25    27.94    
 29.91    32.17    34.60    37.54    40.89    44.87    49.60    55.30    62.11    70.61    
 80.41    92.06    105.20   121.22   137.25   154.77   173.66   192.56   211.58   229.89   
 246.74   261.97   274.56   284.88   292.10   296.79   298.67   297.92   294.65   289.39   
 282.75   274.90   266.05   255.90   244.36   231.69   217.50   201.89   184.85   166.73   
 148.11   
585122.25 586982.13 584560.49 577090.60 517526.14 444106.51 367208.19 279337.87 187792.51 133611.54 
 98468.99 63543.44 28617.88 18081.88 9726.14  1390.83  1232.06  888.91   542.35   473.75   
 357.67   271.66   211.38   178.13   150.67   122.41   94.13    84.34    75.61    64.56    
 53.43    44.85    38.37    34.25    30.74    26.81    23.28    19.84    17.28    15.79    
 14.79    13.97    13.16    12.61    12.18    11.78    11.02    10.62    10.16    9.39     
 8.60     7.84     6.95     6.14     5.69     5.55     5.40     5.24     5.05     4.85     
 4.66     4.46     4.26     4.09     3.92     3.77     3.62     3.48     3.34     3.22     
 3.11     3.01     2.93     2.85     2.78     2.73     2.69     2.63     2.60     2.61     
 2.63     2.64     2.66     2.67     2.73     2.80     2.87     2.97     3.07     3.16     
 3.27     3.40     3.53     3.67     3.83     4.00     4.19     4.39     4.60     4.83     
 5.06     5.31     5.57     5.86     6.17     6.48     6.82     7.18     7.54     7.93     
 8.34     8.76     9.20     9.63     10.11    10.58    11.08    11.56    12.06    12.58    
 13.11    13.65    14.22    14.80    15.38    15.98    16.62    17.27    17.93    18.62    
 19.36    20.18    21.07    22.05    23.10    24.31    25.69    27.28    29.02    30.95    
 33.11    35.45    38.09    41.17    44.83    49.08    54.10    60.04    67.15    75.89    
 86.86    99.56    113.94   129.65   146.44   164.77   185.01   205.39   225.21   244.68   
 264.15   279.90   292.10   301.35   307.33   309.81   309.32   306.05   300.39   292.82   
 283.68   273.19   261.52   249.79   237.21   223.03   207.98   192.10   175.31   156.97   
 148.11   
585122.25 586049.83 583366.38 574600.35 505787.08 424863.63 339004.97 249873.24 161015.32 108732.09 
 65911.29 49589.88 33268.46 16947.05 771.10   772.90   601.46   426.95   292.46   222.62   
 152.74   77.45    49.84    35.22    28.57    23.96    20.79    18.62    17.18    16.37    
 15.78    15.11    14.10    12.73    10.81    9.25     8.31     7.56     6.85     6.35     
 6.05     5.88     5.83     5.72     5.55     5.43     5.27     5.11     4.95     4.72     
 4.51     4.42     4.27     4.08     3.95     3.85     3.70     3.54     3.44     3.36     
 3.30     3.26     3.20     3.14     3.08     3.02     2.96     2.90     2.85     2.79     
 2.75     2.70     2.66     2.61     2.57     2.54     2.52     2.52     2.52     2.54     
 2.54     2.57     2.60     2.62     2.66     2.71     2.76     2.81     2.89     2.97     
 3.04     3.12     3.22     3.34     3.48     3.61     3.78     3.96     4.15     4.37     
 4.61     4.87     5.15     5.46     5.78     6.13     6.51     6.91     7.33     7.77     
 8.24     8.73     9.22     9.71     10.22    10.75    11.30    11.87    12.44    13.00    
 13.59    14.20    14.84    15.49    16.16    16.85    17.59    18.34    19.13    19.94    
 20.79    21.70    22.65    23.69    24.80    26.02    27.37    28.88    30.51    32.29    
 34.41    36.74    39.35    42.38    45.91    50.07    54.99    61.04    68.40    77.76    
 88.93    102.39   118.79   135.20   153.92   173.44   193.94   214.32   235.08   255.14   
 274.06   290.97   304.65   314.71   320.33   322.30   320.71   315.90   308.79   299.81   
 289.66   278.20   265.70   252.29   238.91   224.84   209.90   194.35   177.45   159.94   
 148.11   
585122.25 584438.68 580275.97 567486.81 488410.75 403533.77 315688.70 215756.01 146104.03 106527.45 
 67304.97 28082.49 14257.49 716.21   400.61   226.15   51.69    37.04    28.30    22.53    
 19.01    16.72    14.77    13.12    12.13    11.08    10.05    9.71     9.45     10.04    
 10.44    9.85     8.81     7.82     7.44     7.19     7.13     6.75     6.73     6.39     
 6.11     5.95     5.82     5.47     5.25     5.21     5.18     4.99     4.73     4.52     
 4.47     4.39     4.39     4.32     4.29     4.28     4.12     4.02     3.97     3.92     
 3.77     3.69     3.65     3.59     3.50     3.41     3.36     3.32     3.29     3.25     
 3.24     3.21     3.19     3.16     3.13     3.12     3.10     3.11     3.11     3.12     
 3.13     3.13     3.25     3.44     3.55     3.66     3.76     3.81     3.86     3.90     
 3.96     4.02     4.07     4.07     4.13     4.20     4.30     4.43     4.61     4.81     
 5.04     5.30     5.60     5.95     6.31     6.71     7.13     7.58     8.06     8.53     
 8.99     9.42     9.84     10.26    10.70    11.18    11.67    12.21    12.80    13.43    
 14.06    14.73    15.44    16.16    16.92    17.72    18.58    19.47    20.40    21.36    
 22.34    23.37    24.47    25.58    26.70    27.86    29.14    30.53    32.03    33.70    
 35.59    37.72    40.24    43.33    46.99    51.33    56.49    62.84    71.02    81.12    
 93.44    107.98   124.78   143.08   162.85   183.09   203.56   224.50   245.30   266.10   
 284.53   301.00   314.30   323.34   328.02   328.55   325.41   319.25   310.90   301.01   
 290.12   278.35   265.79   252.79   239.61   226.01   211.92   197.40   181.88   165.44   
 148.11   
