IESNA:LM-63-2002
[TEST] 1
[TESTLAB] AOK
[TESTDATE] 2022-05-30
[ISSUEDATE] 2022-05-31 09:03:59
[NEARFIELD] 
[LAMPPOSITION] 0,0
[OTHER] EVERFINE GO-2000A_V1 SYSTEM
[MANUFAC] AOK
[LUMCAT] A
[LUMINAIRE] AOK-800WiSF-HV-S35-00-5070-15D-P
[LAMPCAT] B
[LAMP] 5050
[BALLAST] E
[BALLASTCAT] F
[OTHER] 
[OTHER] Gamma(deg)    Fz(lm)      Ft(lm)     %Lum    %Lamp
[OTHER]   0- 10     48462.85    48462.85    46.14    46.14
[OTHER]  10- 20     27952.81    76415.66    72.76    72.76
[OTHER]  20- 30     10102.10    86517.76    82.38    82.38
[OTHER]  30- 40      5329.58    91847.34    87.45    87.45
[OTHER]  40- 50      4354.87    96202.21    91.60    91.60
[OTHER]  50- 60      3556.86    99759.07    94.99    94.99
[OTHER]  60- 70      2541.96   102301.04    97.41    97.41
[OTHER]  70- 80      1354.70   103655.74    98.70    98.70
[OTHER]  80- 90       547.67   104203.41    99.22    99.22
[OTHER]  90-100       242.87   104446.28    99.45    99.45
[OTHER] 100-110       145.72   104592.00    99.59    99.59
[OTHER] 110-120       109.42   104701.42    99.69    99.69
[OTHER] 120-130        81.96   104783.38    99.77    99.77
[OTHER] 130-140        55.59   104838.97    99.82    99.82
[OTHER] 140-150        39.45   104878.42    99.86    99.86
[OTHER] 150-160        55.35   104933.77    99.91    99.91
[OTHER] 160-170        66.63   105000.40    99.98    99.98
[OTHER] 170-180        22.77   105023.17   100.00   100.00
[OTHER] 
TILT=NONE
1 1.0502e+005 1 181 25 1 2 0.150 0.200 0.000
1.000 1 797.886
0.0    1.0    2.0    3.0    4.0    5.0    6.0    7.0    8.0    9.0    
 10.0   11.0   12.0   13.0   14.0   15.0   16.0   17.0   18.0   19.0   
 20.0   21.0   22.0   23.0   24.0   25.0   26.0   27.0   28.0   29.0   
 30.0   31.0   32.0   33.0   34.0   35.0   36.0   37.0   38.0   39.0   
 40.0   41.0   42.0   43.0   44.0   45.0   46.0   47.0   48.0   49.0   
 50.0   51.0   52.0   53.0   54.0   55.0   56.0   57.0   58.0   59.0   
 60.0   61.0   62.0   63.0   64.0   65.0   66.0   67.0   68.0   69.0   
 70.0   71.0   72.0   73.0   74.0   75.0   76.0   77.0   78.0   79.0   
 80.0   81.0   82.0   83.0   84.0   85.0   86.0   87.0   88.0   89.0   
 90.0   91.0   92.0   93.0   94.0   95.0   96.0   97.0   98.0   99.0   
 100.0  101.0  102.0  103.0  104.0  105.0  106.0  107.0  108.0  109.0  
 110.0  111.0  112.0  113.0  114.0  115.0  116.0  117.0  118.0  119.0  
 120.0  121.0  122.0  123.0  124.0  125.0  126.0  127.0  128.0  129.0  
 130.0  131.0  132.0  133.0  134.0  135.0  136.0  137.0  138.0  139.0  
 140.0  141.0  142.0  143.0  144.0  145.0  146.0  147.0  148.0  149.0  
 150.0  151.0  152.0  153.0  154.0  155.0  156.0  157.0  158.0  159.0  
 160.0  161.0  162.0  163.0  164.0  165.0  166.0  167.0  168.0  169.0  
 170.0  171.0  172.0  173.0  174.0  175.0  176.0  177.0  178.0  179.0  
 180.0  
0.0    15.0   30.0   45.0   60.0   75.0   90.0   105.0  120.0  135.0  
 150.0  165.0  180.0  195.0  210.0  225.0  240.0  255.0  270.0  285.0  
 300.0  315.0  330.0  345.0  360.0  
759177.00 763432.29 763555.98 762338.96 757217.69 699739.93 639066.56 577222.08 493082.81 411850.57 
 314172.94 224193.31 141489.32 114315.91 87748.08 61180.26 49436.77 40276.78 27284.11 20710.35 
 15532.96 11602.35 7686.19  3770.02  1737.93  1161.01  599.49   37.96    23.74    19.27    
 17.67    16.14    14.73    13.44    12.02    10.50    9.23     8.17     7.47     7.19     
 6.99     6.96     6.81     6.49     6.24     6.15     6.08     5.86     5.85     5.73     
 5.24     4.84     4.54     4.24     4.16     4.04     3.98     3.96     3.93     3.90     
 3.87     3.85     3.83     3.81     3.81     3.81     3.81     3.81     3.81     3.81     
 3.81     3.81     3.83     3.85     3.84     3.84     3.85     3.82     3.81     3.80     
 3.79     3.79     3.79     3.85     3.90     3.99     4.09     4.21     4.33     4.44     
 4.59     4.75     4.92     5.13     5.33     5.53     5.76     5.99     6.23     6.48     
 6.72     6.96     7.23     7.51     7.83     8.16     8.50     8.86     9.23     9.61     
 10.01    10.43    10.87    11.33    11.80    12.28    12.78    13.30    13.86    14.44    
 15.04    15.66    16.33    17.00    17.67    18.37    19.12    19.90    20.73    21.61    
 22.56    23.59    24.77    26.08    27.54    29.14    31.00    33.09    35.51    38.25    
 41.28    44.63    48.41    52.77    57.63    63.07    69.04    75.76    83.76    93.25    
 104.44   117.48   132.79   150.30   169.85   191.16   214.04   238.85   263.68   287.68   
 310.81   333.16   354.08   373.24   389.26   400.87   407.90   409.99   407.53   401.04   
 391.42   379.36   366.46   352.31   338.11   322.41   305.45   286.89   266.61   245.01   
 224.04   
759177.00 764326.83 765699.82 764513.00 759714.47 731445.95 660830.82 600146.08 521932.87 430358.74 
 337265.72 257039.96 176917.43 109289.96 80784.40 64046.73 51600.83 42268.63 35012.71 27497.22 
 19999.68 14838.45 10005.60 6780.57  4619.88  2554.11  505.51   327.22   150.32   116.32   
 86.24    63.74    59.16    56.86    33.34    24.64    20.20    17.77    16.44    15.81    
 15.24    14.19    13.19    11.94    10.95    9.94     9.26     8.58     8.11     7.76     
 7.41     7.00     6.45     5.70     5.18     4.86     4.67     4.78     4.93     4.96     
 4.92     4.80     4.71     4.64     4.54     4.45     4.41     4.39     4.32     4.24     
 4.14     4.05     3.95     3.87     3.79     3.70     3.62     3.54     3.48     3.42     
 3.39     3.39     3.40     3.43     3.50     3.59     3.68     3.79     3.89     4.02     
 4.16     4.32     4.49     4.67     4.88     5.10     5.33     5.56     5.81     6.07     
 6.33     6.62     6.92     7.23     7.54     7.86     8.20     8.55     8.93     9.31     
 9.68     10.07    10.49    10.95    11.40    11.89    12.38    12.89    13.40    13.93    
 14.50    15.11    15.74    16.38    17.04    17.73    18.45    19.22    20.03    20.88    
 21.84    22.87    24.03    25.30    26.71    28.34    30.17    32.29    34.63    37.28    
 40.32    43.70    47.46    51.64    56.31    61.62    67.58    74.35    82.16    91.40    
 102.28   116.27   130.30   147.66   166.92   188.07   210.89   234.20   258.64   282.89   
 306.66   329.65   351.29   371.42   387.95   400.53   408.32   411.19   409.68   404.14   
 395.42   384.24   371.75   358.18   343.82   328.15   310.97   292.53   272.18   251.38   
 224.04   
759177.00 763700.83 764736.18 761823.44 755510.77 741770.78 687708.26 604626.64 517759.59 423867.88 
 324368.48 247342.24 175666.45 124503.38 89245.19 68857.46 48623.00 40585.14 34617.41 29674.58 
 25930.50 21723.56 15416.82 11310.93 8676.80  6058.57  3749.43  2339.61  1203.50  760.26   
 325.67   195.87   141.47   119.78   98.47    77.15    64.17    55.69    43.84    34.69    
 29.50    25.22    22.12    20.02    18.45    17.38    16.45    15.49    14.60    13.80    
 13.25    12.76    12.31    11.74    10.96    9.86     8.78     8.00     7.36     7.00     
 6.80     6.57     6.35     6.18     6.03     5.89     5.75     5.62     5.51     5.39     
 5.25     5.08     4.90     4.72     4.54     4.36     4.16     3.98     3.79     3.64     
 3.50     3.40     3.34     3.34     3.40     3.49     3.60     3.73     3.88     4.02     
 4.19     4.38     4.57     4.78     5.01     5.23     5.48     5.75     6.02     6.29     
 6.57     6.88     7.20     7.51     7.85     8.20     8.55     8.92     9.29     9.68     
 10.10    10.52    10.95    11.40    11.87    12.33    12.81    13.30    13.79    14.31    
 14.85    15.42    16.00    16.63    17.27    17.93    18.65    19.45    20.31    21.24    
 22.22    23.30    24.49    25.82    27.35    29.02    30.91    32.97    35.25    37.88    
 40.79    44.01    47.62    51.70    56.31    61.57    67.48    74.43    82.64    92.28    
 103.55   116.65   131.92   149.39   169.01   190.00   212.67   237.62   262.60   287.29   
 311.37   334.76   356.44   375.25   390.79   401.86   408.91   411.53   410.14   404.62   
 396.20   385.39   373.55   360.11   345.41   329.27   311.44   291.61   270.04   247.37   
 224.04   
759177.00 763068.23 763431.69 759572.48 749180.81 726917.18 685868.24 624237.36 521435.09 421829.41 
 325222.15 251059.14 177132.40 131118.66 96692.13 72699.57 56562.41 46224.89 34066.45 28709.58 
 25211.85 21718.19 18741.77 16083.14 13357.80 11089.94 8181.61  6442.46  4883.92  3777.69  
 3066.23  2354.77  1644.68  1108.99  603.86   454.57   305.27   156.97   117.67   93.22    
 79.19    66.66    57.19    49.58    43.49    38.03    34.05    29.82    27.03    25.01    
 22.67    21.12    20.07    19.59    18.80    17.74    16.79    15.95    15.35    14.84    
 14.04    12.85    10.93    8.83     8.08     7.73     7.44     7.18     6.99     6.81     
 6.61     6.40     6.19     5.96     5.70     5.41     5.11     4.77     4.40     4.06     
 3.74     3.46     3.24     3.15     3.17     3.26     3.38     3.52     3.66     3.83     
 4.02     4.20     4.40     4.62     4.87     5.12     5.38     5.65     5.93     6.23     
 6.54     6.85     7.18     7.52     7.88     8.23     8.60     8.99     9.38     9.76     
 10.17    10.58    11.01    11.46    11.91    12.40    12.89    13.39    13.89    14.41    
 14.96    15.53    16.12    16.72    17.35    17.99    18.70    19.46    20.26    21.13    
 22.07    23.12    24.26    25.50    26.85    28.38    30.10    31.99    34.04    36.37    
 39.09    42.10    45.51    49.42    53.97    59.29    65.40    72.66    81.17    91.28    
 103.20   118.16   133.15   151.45   171.18   192.96   216.18   240.06   265.32   289.93   
 313.87   336.46   356.90   375.02   389.39   400.28   407.01   409.82   408.57   403.74   
 396.00   385.95   373.97   360.00   344.70   326.79   307.23   286.68   264.60   242.72   
 224.04   
759177.00 763401.30 763488.46 756440.90 739041.02 701714.21 643450.50 572591.10 487801.12 398730.35 
 317626.62 236955.85 171819.74 131177.79 104264.95 77495.79 62940.60 49186.00 41923.37 35656.60 
 28735.84 24129.45 19991.16 16235.29 13200.38 10987.90 8784.16  7641.95  6891.64  6268.12  
 5771.93  5331.41  4886.38  4463.64  3964.65  3419.22  2889.20  2398.07  1946.43  1590.95  
 1280.06  1021.15  762.86   540.99   361.09   253.86   182.99   141.21   118.14   95.25    
 80.47    68.73    61.85    57.00    50.49    45.15    40.97    37.35    33.79    30.60    
 28.53    26.72    24.92    23.80    22.59    21.45    20.25    18.90    16.88    12.99    
 10.78    9.91     9.40     9.03     8.70     8.28     7.88     7.41     6.89     6.30     
 5.63     4.98     4.39     3.89     3.76     3.78     3.92     4.07     4.23     4.41     
 4.59     4.81     5.04     5.29     5.54     5.77     6.01     6.29     6.57     6.87     
 7.20     7.52     7.87     8.20     8.55     8.93     9.33     9.74     10.19    10.65    
 11.13    11.62    12.12    12.62    13.14    13.67    14.12    14.40    14.70    14.98    
 15.36    15.84    16.44    17.12    17.81    18.44    19.01    19.57    20.15    20.78    
 21.55    22.44    23.46    24.58    25.86    27.24    28.78    30.51    32.50    34.53    
 36.76    39.45    42.66    46.52    50.98    56.37    62.82    70.45    79.29    90.10    
 102.93   117.28   133.24   151.01   169.62   190.57   211.70   233.70   256.49   279.30   
 300.05   318.70   335.93   350.61   362.21   371.50   377.53   378.85   375.77   370.97   
 363.23   353.98   341.06   330.11   314.91   296.01   278.07   259.78   240.79   221.97   
 224.04   
759177.00 759656.61 755259.04 742553.82 715343.81 664727.76 593868.97 513804.09 425383.18 338183.65 
 270428.14 202857.31 157764.15 122425.86 98114.81 80228.99 66202.24 55202.20 46855.20 40646.83 
 35218.75 30665.75 26280.45 21904.99 18702.06 16270.00 14406.87 12932.18 11725.27 10737.21 
 9897.30  9064.10  8353.94  7726.72  7151.22  6648.03  6180.11  5788.41  5420.84  5053.95  
 4716.11  4390.71  4105.88  3818.61  3528.67  3256.20  3004.32  2759.57  2514.83  2270.18  
 2035.19  1787.14  1536.01  1301.20  1052.74  825.89   629.30   477.43   378.07   305.16   
 255.66   206.27   168.58   135.65   111.17   92.10    77.47    65.17    55.37    46.66    
 39.42    33.81    29.22    26.00    23.20    21.06    18.67    15.86    11.64    10.03    
 9.24     8.26     7.06     5.46     3.88     3.16     3.22     3.31     3.42     3.55     
 3.69     3.85     4.02     4.22     4.43     4.64     4.88     5.13     5.40     5.67     
 5.95     6.23     6.52     6.83     7.15     7.48     7.83     8.20     8.58     8.97     
 9.39     9.82     10.26    10.70    11.18    11.67    12.17    12.69    13.20    13.71    
 14.24    14.78    15.36    15.94    16.56    17.20    17.90    18.62    19.41    20.24    
 21.13    22.13    23.18    24.28    25.52    26.89    28.55    30.34    32.36    34.67    
 37.24    40.19    43.86    48.19    53.37    59.65    67.11    76.13    86.69    99.20    
 114.92   130.65   148.32   168.29   189.34   211.67   234.86   257.58   280.81   303.03   
 323.93   342.83   359.49   373.88   385.25   393.89   399.20   401.09   399.63   394.93   
 387.88   378.20   365.51   350.47   334.35   317.39   299.44   281.39   262.09   243.07   
 224.04   
759177.00 758819.64 754581.09 743651.17 718149.60 668474.25 593596.99 510426.44 418748.16 331658.26 
 264670.14 197937.10 154413.46 121110.92 96626.03 79063.17 65628.08 55220.55 46689.45 40335.82 
 34945.91 30509.80 27012.84 23515.89 20034.08 17876.55 16153.84 14822.18 13774.32 12919.73 
 12122.55 11353.16 10737.40 10166.24 9642.81  9200.43  8793.33  8410.62  8061.14  7761.57  
 7462.34  7189.27  6944.23  6700.94  6437.34  6188.12  5921.91  5650.25  5383.52  5135.12  
 4906.56  4693.48  4493.20  4310.33  4129.47  3962.75  3793.22  3618.92  3440.29  3260.99  
 3091.50  2920.82  2749.03  2582.91  2416.84  2254.93  2092.97  1929.71  1775.28  1622.83  
 1476.52  1333.92  1197.66  1070.75  947.17   829.01   718.33   615.48   523.50   441.95   
 368.00   299.78   243.76   187.89   144.86   106.82   78.23    54.34    26.11    7.25     
 3.70     2.72     2.46     2.35     2.33     2.30     2.07     1.58     1.62     1.70     
 1.70     1.70     1.66     1.71     1.77     1.85     2.00     2.00     2.05     2.18     
 2.26     2.25     2.37     2.51     2.54     2.69     2.83     3.02     3.22     3.30     
 3.40     3.49     3.59     3.70     3.83     3.97     4.11     4.27     4.45     4.64     
 4.84     5.07     5.32     5.57     5.84     6.16     6.51     6.92     7.41     7.98     
 8.66     9.44     10.43    11.62    13.01    14.72    16.64    18.86    21.38    24.15    
 27.17    30.42    33.92    37.74    41.88    46.34    51.08    56.12    61.46    66.85    
 72.39    78.14    83.85    89.82    95.73    101.96   108.47   115.04   121.37   128.32   
 134.94   141.77   147.76   153.39   160.38   168.43   177.41   187.35   198.73   211.17   
 224.04   
759177.00 756927.26 749924.29 733476.75 699426.60 641464.86 557735.54 466351.24 377039.16 297921.07 
 232620.13 183196.73 146548.11 119369.76 100314.22 81322.05 68303.25 58628.68 50769.84 44271.64 
 38557.29 33399.34 28881.47 24712.12 21360.49 18807.16 17012.94 15746.86 14796.46 14032.14 
 13378.62 12792.35 12253.43 11792.87 11403.58 11014.88 10690.41 10411.54 10138.50 9914.07  
 9720.12  9531.20  9349.04  9150.35  8900.95  8636.50  8350.18  8070.79  7814.40  7569.25  
 7345.77  7124.20  6909.76  6705.65  6501.24  6298.01  6099.13  5901.88  5707.40  5501.88  
 5295.48  5095.55  4895.91  4693.52  4483.20  4276.76  4077.85  3890.47  3688.18  3478.25  
 3274.97  3085.99  2898.42  2698.90  2508.35  2330.12  2166.21  1999.28  1839.43  1688.34  
 1546.81  1421.95  1300.79  1188.66  1082.65  976.71   880.69   798.75   727.05   664.77   
 612.51   558.69   507.40   460.99   417.68   378.20   342.35   310.18   282.30   256.62   
 232.50   210.94   193.28   177.18   161.94   147.31   134.29   121.80   109.31   96.83    
 85.88    76.41    67.97    59.69    51.40    43.84    36.77    30.29    24.70    20.60    
 12.34    4.36     3.16     3.11     3.18     3.33     3.48     3.63     3.82     4.00     
 4.38     4.88     5.40     5.94     6.80     7.32     7.40     7.13     7.20     7.65     
 8.13     8.85     9.66     10.61    12.56    13.99    15.74    17.87    20.18    22.86    
 25.90    29.11    31.86    34.94    39.01    43.31    47.86    52.53    57.32    62.20    
 67.13    72.21    77.30    82.60    88.03    93.62    99.25    104.82   110.67   117.22   
 122.69   128.94   135.28   141.85   149.64   158.22   168.19   179.81   192.72   207.36   
 224.04   
759177.00 756049.19 748011.83 729631.37 692733.62 631380.99 550455.67 457603.70 369400.20 294025.04 
 241161.40 188497.67 154013.97 127166.81 106606.88 91463.47 79554.04 69649.76 61477.34 54339.25 
 47994.11 41822.57 36582.80 31775.19 27661.58 24648.20 21643.66 19382.96 17684.92 16367.69 
 15360.67 14515.49 13806.04 13269.32 12854.13 12503.29 12187.76 11889.43 11610.50 11337.03 
 11091.70 10857.68 10626.32 10409.79 10212.03 9996.97  9752.05  9485.97  9198.37  8926.15  
 8686.86  8462.95  8239.73  8008.80  7772.21  7544.87  7333.80  7129.36  6918.13  6699.21  
 6463.93  6213.53  5951.81  5699.65  5454.84  5208.59  4965.17  4726.38  4478.51  4230.10  
 3969.49  3711.01  3466.94  3239.48  3016.42  2797.52  2581.21  2365.13  2170.52  1988.41  
 1815.71  1655.33  1512.33  1385.42  1271.68  1165.79  1070.26  986.69   912.27   851.36   
 797.14   736.32   677.96   623.31   573.04   530.85   492.44   458.24   427.75   399.42   
 374.85   354.94   337.86   322.49   308.58   296.22   284.93   274.68   265.58   257.83   
 250.53   243.57   236.99   230.42   223.84   217.13   210.34   203.18   196.01   189.17   
 181.72   173.92   165.75   157.54   148.67   140.09   130.78   121.29   112.06   100.70   
 87.60    71.71    47.66    27.10    16.93    14.23    13.47    7.18     4.52     4.75     
 5.15     5.69     6.35     7.23     8.38     9.78     11.48    13.46    16.04    19.09    
 22.39    26.27    34.97    43.71    35.34    39.55    44.09    48.82    53.80    58.91    
 63.98    68.94    73.80    78.59    83.25    87.83    92.26    96.68    101.18   105.75   
 110.32   115.75   121.98   128.91   136.80   145.81   156.32   167.76   181.87   197.87   
 224.04   
759177.00 754000.67 742759.84 718858.45 675583.23 607113.15 520839.81 429935.42 347552.75 277728.63 
 223160.26 182776.10 152690.96 130287.23 115934.08 101643.84 87353.61 78366.89 70800.13 63266.12 
 56682.09 50552.44 44778.72 39422.67 34887.80 31020.98 27770.04 25040.21 22666.11 20576.78 
 18701.19 17144.16 15898.90 14988.78 14327.97 13821.83 13363.90 12949.41 12575.41 12231.95 
 11923.94 11665.18 11406.90 11148.61 10936.67 10691.84 10427.68 10193.52 9973.48  9711.49  
 9436.43  9152.61  8899.99  8657.58  8416.06  8165.02  7905.58  7624.26  7329.66  7036.95  
 6752.97  6474.59  6198.66  5929.49  5656.81  5393.61  5130.89  4867.79  4590.00  4300.59  
 4025.77  3769.31  3512.11  3255.39  3001.85  2772.89  2539.81  2310.25  2103.33  1913.64  
 1743.14  1589.46  1435.91  1300.20  1188.00  1095.22  1002.62  919.40   852.40   798.09   
 744.48   683.03   627.15   579.60   537.58   501.43   472.00   446.74   424.37   405.14   
 388.67   375.08   363.01   352.37   342.85   333.20   325.25   317.75   311.12   304.36   
 297.98   292.29   286.35   281.31   275.89   270.55   265.43   261.21   256.61   252.30   
 248.12   243.99   239.81   235.85   230.82   225.66   220.32   214.81   209.57   203.89   
 198.25   190.10   181.92   173.23   164.53   155.75   146.37   136.81   125.76   113.04   
 100.31   84.76    46.59    17.53    11.57    10.97    10.72    11.80    14.10    16.72    
 19.70    22.94    26.56    30.52    34.71    39.23    44.28    49.80    55.79    69.57    
 75.92    72.45    78.74    85.16    91.27    96.77    101.55   105.88   109.52   112.61   
 115.07   117.75   121.00   125.24   131.13   139.00   149.10   161.93   176.52   194.33   
 224.04   
759177.00 753024.01 740981.40 716301.08 670193.14 596567.61 508596.94 419618.34 340586.37 289366.70 
 238147.06 187182.11 159337.82 137163.05 119591.49 105620.87 94380.91 84936.48 76787.64 69282.86 
 62129.80 55418.89 49119.62 43654.64 38729.85 34589.99 31118.45 28039.79 25806.99 23574.18 
 21347.30 19707.16 18462.91 17514.37 16688.47 15953.65 15219.85 14540.52 13948.42 13468.84 
 13034.78 12634.77 12248.78 11905.98 11598.85 11330.59 11065.81 10793.15 10524.43 10220.48 
 9915.50  9623.49  9325.02  9015.94  8707.73  8413.27  8143.51  7886.84  7631.34  7374.62  
 7115.71  6871.01  6591.45  6307.64  6001.18  5678.74  5349.07  5009.62  4681.88  4374.51  
 4082.56  3788.73  3503.01  3234.14  2983.66  2748.98  2514.29  2279.81  2064.45  1872.34  
 1688.28  1522.53  1366.14  1241.22  1128.73  1033.01  947.25   871.24   812.10   762.00   
 711.64   653.43   598.46   551.42   511.74   480.75   454.33   432.07   412.28   395.03   
 382.04   371.46   362.97   354.92   348.37   342.04   336.35   330.80   326.14   320.89   
 315.90   311.24   306.80   302.53   297.62   293.21   288.22   283.39   278.82   274.08   
 269.95   265.35   261.68   257.37   253.27   248.79   244.46   239.32   234.17   229.03   
 224.38   219.75   214.96   210.10   204.92   199.48   194.24   187.05   180.24   172.98   
 164.14   155.25   145.61   131.19   118.24   106.55   98.94    74.20    24.17    23.11    
 24.70    24.61    25.70    29.78    34.30    39.23    44.61    50.44    56.84    63.72    
 71.17    78.73    88.80    111.96   97.27    103.37   108.94   113.95   117.76   120.98   
 123.41   125.36   126.68   128.78   132.21   138.19   146.82   158.90   173.92   192.69   
 224.04   
759177.00 751125.82 735725.45 706145.88 652103.48 571495.67 477050.81 388399.92 315121.94 256442.88 
 213690.54 181728.73 157406.29 137904.72 121824.17 109969.06 98145.96 89440.50 81887.97 74711.23 
 67773.41 60943.76 54495.95 48597.43 43288.91 38771.13 34998.57 31837.92 29210.48 26870.76 
 24792.76 23042.96 21680.89 20483.27 19412.74 18366.85 17321.16 16318.70 15468.29 14742.19 
 14111.47 13571.92 13170.59 12758.75 12346.81 11919.16 11525.03 11131.17 10782.28 10453.66 
 10119.73 9778.09  9449.90  9135.76  8849.21  8582.41  8311.40  7996.16  7675.77  7341.79  
 7016.07  6714.36  6408.42  6120.34  5830.84  5540.53  5257.78  4973.50  4682.83  4389.72  
 4097.79  3792.72  3503.48  3208.40  2949.45  2692.05  2455.35  2224.41  2010.64  1813.74  
 1636.50  1480.13  1347.44  1226.02  1129.92  1034.07  947.64   875.83   819.83   771.48   
 716.03   650.70   593.05   545.29   507.43   476.13   449.79   428.95   410.59   394.88   
 381.71   373.07   365.80   359.69   354.58   350.12   345.13   340.88   337.07   333.53   
 329.34   325.32   321.47   317.49   313.81   310.05   306.46   302.37   297.88   293.56   
 289.66   285.56   281.49   277.51   273.79   270.12   266.27   262.04   257.81   253.53   
 249.04   243.99   238.93   233.91   229.07   216.00   208.39   203.18   198.68   193.75   
 186.74   180.55   175.14   169.91   164.85   156.96   146.82   141.63   136.40   127.18   
 79.58    31.69    32.03    33.55    36.84    42.11    48.18    54.46    61.44    68.97    
 76.86    84.96    92.74    101.04   132.52   110.83   113.21   117.45   120.95   123.45   
 125.41   126.97   128.16   129.27   132.06   137.82   146.90   159.77   176.17   196.63   
 224.04   
759177.00 750646.09 735440.71 706347.29 650953.21 568586.45 474958.55 387314.59 313986.85 263955.11 
 214131.32 183640.92 159588.53 139973.24 123796.30 110858.79 100271.31 91756.94 84177.38 77390.13 
 70817.78 64405.13 58246.10 52669.77 47619.42 43281.63 39506.52 36221.46 33261.03 30561.90 
 28076.60 25927.30 24258.69 22593.77 21267.39 20019.84 18814.01 17675.61 16658.48 15778.23 
 15077.23 14664.25 14225.98 13683.85 13182.54 12702.35 12225.36 11749.96 11274.57 10799.89 
 10285.85 9834.83  9467.88  9120.60  8781.18  8483.97  8224.68  7977.74  7731.03  7469.88  
 7198.45  6898.03  6566.40  6216.89  5867.73  5538.06  5220.74  4905.56  4603.61  4310.38  
 4014.70  3713.77  3439.24  3179.55  2930.24  2685.29  2440.52  2214.69  2008.20  1819.51  
 1640.32  1487.49  1355.97  1237.80  1137.94  1044.91  960.51   891.24   835.84   786.86   
 729.33   662.39   603.31   553.92   513.62   482.21   456.15   434.15   415.26   398.98   
 386.76   378.47   371.77   366.46   362.26   358.23   354.39   351.05   347.59   344.40   
 341.24   338.33   335.26   332.14   328.94   325.82   322.74   319.54   316.11   312.22   
 308.85   305.60   302.10   298.63   294.64   290.40   286.33   282.17   278.01   273.41   
 268.47   263.29   258.05   252.72   247.25   236.22   225.25   219.34   214.44   209.28   
 204.11   198.63   193.09   187.48   182.01   176.17   170.57   165.63   160.73   153.63   
 133.76   38.93    34.83    37.34    39.91    44.53    50.92    57.39    64.32    71.87    
 80.14    88.00    95.84    103.74   119.35   135.48   114.79   118.35   121.36   123.61   
 125.36   126.90   128.07   129.37   131.94   136.98   146.41   159.31   176.30   197.24   
 224.04   
759177.00 749211.59 731218.70 697380.11 636476.42 549173.47 454414.84 369731.41 301968.95 249216.57 
 209559.12 179303.99 155888.64 137077.01 121110.33 109182.93 97286.17 88370.16 80430.55 72965.71 
 65852.58 59094.01 52812.44 47285.46 42349.53 38113.89 34559.71 31548.71 29062.01 26805.36 
 24752.12 23079.68 21718.66 20455.17 19350.49 18282.71 17278.45 16373.51 15526.99 14804.79 
 14170.62 13628.04 13181.05 12727.04 12300.60 11902.05 11523.22 11144.55 10797.04 10467.81 
 10131.62 9806.05  9493.79  9169.66  8878.22  8604.30  8316.11  7993.37  7645.49  7313.05  
 6983.13  6682.51  6378.49  6077.23  5779.60  5495.21  5212.94  4937.89  4648.09  4352.56  
 4056.98  3750.18  3467.32  3177.06  2909.93  2655.42  2406.63  2178.70  1965.77  1773.79  
 1596.01  1446.38  1312.60  1190.50  1097.05  1003.88  919.55   851.10   797.15   748.72   
 691.11   628.20   573.23   527.60   490.97   461.30   435.31   414.87   397.02   381.22   
 369.24   360.73   354.36   348.53   343.40   338.87   334.67   330.84   327.31   323.66   
 319.97   316.40   313.18   309.49   306.31   303.05   299.92   295.85   291.29   286.99   
 282.68   278.46   274.42   269.86   265.25   260.69   256.42   251.86   247.39   242.92   
 237.36   231.67   225.89   220.79   213.25   204.35   200.18   195.92   191.23   185.59   
 179.69   174.30   168.26   162.22   155.35   142.93   136.18   129.96   109.12   88.16    
 30.33    30.31    32.33    35.69    41.05    47.24    53.64    60.45    67.68    75.23    
 82.61    90.32    97.82    110.21   131.75   112.66   116.61   119.71   121.98   123.91   
 125.69   127.41   128.82   130.54   133.50   139.58   149.14   162.88   180.61   202.92   
 224.04   
759177.00 749837.23 733466.12 702753.09 647020.33 564581.65 472438.38 386456.81 316967.80 272882.93 
 228798.11 184905.87 158509.02 137400.68 120670.57 107040.83 95517.79 85766.30 77455.32 69958.48 
 62672.18 55950.17 49582.36 44209.50 39601.17 35617.15 32075.29 28917.82 26571.72 24225.62 
 21885.21 20108.08 18743.82 17702.32 16832.31 16022.89 15301.40 14612.54 14047.31 13559.52 
 13130.21 12745.95 12370.27 12034.88 11724.94 11436.54 11142.57 10850.83 10545.37 10228.48 
 9924.57  9637.18  9328.17  9016.17  8718.21  8428.34  8147.11  7887.16  7634.34  7375.54  
 7117.97  6863.25  6579.56  6279.77  5969.53  5648.71  5316.28  4982.68  4652.07  4338.09  
 4045.25  3748.58  3465.15  3186.78  2929.39  2688.96  2448.65  2219.85  2003.68  1815.07  
 1634.50  1468.52  1320.71  1199.71  1092.36  1000.57  914.95   842.97   786.71   738.56   
 686.37   627.65   574.46   526.47   488.51   458.18   433.20   412.06   393.21   377.79   
 366.10   356.19   347.88   340.41   333.71   327.66   321.92   316.52   311.39   306.79   
 302.13   297.56   293.21   289.20   285.10   280.32   275.87   271.34   266.56   262.16   
 257.42   252.55   247.94   243.66   238.36   233.07   228.61   223.54   218.82   214.33   
 209.65   204.97   199.81   194.93   189.38   183.68   175.71   168.52   161.66   153.99   
 146.97   137.71   125.67   117.52   109.26   98.60    64.74    22.21    19.92    21.38    
 22.53    25.92    30.60    35.83    41.46    47.49    53.92    60.52    67.64    75.01    
 82.57    91.98    113.40   99.31    103.85   108.24   112.26   115.82   119.10   122.12   
 124.45   126.27   128.57   131.31   135.38   141.07   149.51   162.01   178.93   199.63   
 224.04   
759177.00 750454.43 734349.15 704368.79 652320.45 574856.95 483566.19 396658.74 324620.03 266082.05 
 219762.01 184299.58 156746.55 135093.19 117258.57 105179.26 93143.63 84177.37 76540.42 69110.10 
 62382.83 56089.98 50169.57 44617.11 40063.12 36024.99 32486.85 29441.01 26612.21 23920.17 
 21478.95 19333.26 17499.34 16080.41 15009.98 14220.07 13606.96 13102.37 12687.04 12314.79 
 11986.52 11706.76 11427.46 11204.43 10981.92 10732.07 10482.80 10256.45 10022.25 9779.53  
 9522.16  9243.51  8991.56  8743.47  8490.60  8217.20  7935.98  7657.51  7366.60  7062.71  
 6767.18  6485.75  6208.88  5934.86  5662.08  5383.28  5110.85  4837.28  4560.08  4274.80  
 3992.68  3731.10  3462.36  3196.04  2947.01  2712.61  2478.34  2246.88  2041.56  1857.78  
 1688.64  1534.51  1389.74  1259.08  1162.56  1066.39  970.22   889.05   826.14   774.50   
 718.21   657.67   602.82   557.19   516.74   483.14   454.21   429.69   409.10   391.27   
 375.37   361.52   349.41   338.76   328.80   319.41   310.71   302.84   295.64   288.83   
 282.06   275.69   270.14   264.47   259.31   254.16   248.93   243.58   238.12   232.75   
 227.43   222.15   216.91   211.63   205.83   199.55   193.44   188.37   184.19   178.57   
 171.30   163.19   155.03   146.10   137.11   128.16   117.93   107.69   96.24    82.68    
 53.59    22.67    14.61    12.00    10.59    10.99    12.83    15.08    17.72    20.79    
 24.27    28.12    32.45    37.33    42.94    48.84    55.26    64.67    81.42    73.99    
 79.51    85.39    90.96    95.86    100.36   105.03   108.16   111.72   115.46   118.21   
 120.88   123.69   127.05   130.85   135.68   142.17   151.30   163.46   178.86   197.48   
 224.04   
759177.00 749282.19 733241.14 710141.45 667405.89 603246.27 520634.37 430216.46 349267.26 298387.82 
 247508.43 196835.58 164936.11 139560.61 119302.23 103845.13 91587.41 81483.46 73251.96 66078.61 
 59056.29 52515.90 46214.40 40816.43 36196.70 32159.97 29038.73 25917.49 22807.45 20598.35 
 18649.69 16894.76 15414.06 14319.07 13495.65 12773.23 12087.56 11497.02 11067.43 10804.18 
 10553.64 10323.13 10101.91 9882.62  9642.49  9423.97  9176.00  8908.67  8640.38  8400.49  
 8199.23  7996.92  7779.18  7563.24  7340.39  7129.63  6923.13  6712.91  6477.69  6236.68  
 5977.82  5735.37  5499.72  5258.57  5024.10  4792.90  4565.20  4343.95  4121.38  3896.48  
 3655.74  3420.18  3186.13  2971.25  2756.37  2541.59  2335.98  2141.21  1963.48  1794.49  
 1638.06  1490.55  1362.73  1245.80  1145.06  1049.26  963.87   889.80   824.94   769.12   
 718.99   659.19   603.93   553.00   508.96   469.01   433.91   401.90   373.44   346.54   
 324.82   306.21   289.57   274.63   262.60   250.58   238.58   228.66   219.78   211.91   
 204.57   197.55   192.12   184.93   177.50   170.24   163.19   155.93   148.69   141.99   
 135.10   128.26   121.33   114.06   106.53   98.84    89.81    79.99    68.65    54.95    
 38.44    23.73    16.51    11.72    7.47     5.29     5.46     5.80     6.17     6.62     
 7.22     7.95     8.89     10.17    11.66    13.94    16.93    19.91    23.28    28.57    
 39.46    33.78    37.05    41.32    45.61    50.63    55.64    60.40    64.56    67.69    
 70.49    75.38    80.50    85.39    89.85    93.94    98.76    102.31   105.66   108.95   
 112.34   115.75   119.95   125.13   130.50   137.04   145.72   156.90   168.87   184.29   
 224.04   
759177.00 754287.07 743441.04 723327.58 685811.24 624792.83 540831.26 452559.11 370596.29 299885.19 
 241900.22 196575.04 161724.39 135025.29 117721.12 100490.42 83259.72 72288.00 63273.05 55442.05 
 48787.93 42497.55 36726.11 31582.22 27265.28 23570.50 20686.82 18407.45 16518.63 15030.00 
 13870.32 12943.73 12229.47 11761.51 11295.70 10829.88 10496.14 10213.78 9943.42  9704.14  
 9500.13  9297.67  9092.01  8866.21  8622.13  8380.71  8140.52  7908.39  7682.36  7463.22  
 7251.16  7050.23  6856.23  6662.70  6469.58  6263.59  6062.72  5862.30  5661.07  5450.18  
 5236.39  5025.97  4825.05  4629.45  4419.83  4205.65  3997.47  3797.39  3597.37  3387.30  
 3190.82  2997.68  2803.88  2607.54  2419.22  2238.20  2057.65  1885.96  1729.63  1578.66  
 1442.62  1317.98  1199.46  1089.53  979.66   882.56   794.50   716.88   649.04   591.55   
 543.38   495.42   448.63   404.54   363.76   325.88   292.03   263.20   236.71   211.32   
 186.68   167.07   149.45   133.62   119.61   105.62   94.70    85.52    76.93    68.16    
 59.48    51.02    42.74    35.42    29.51    24.29    13.62    5.41     4.49     4.51     
 4.61     4.74     4.93     5.07     5.28     5.52     5.93     6.51     7.00     7.55     
 8.22     8.91     9.16     9.07     9.22     9.53     9.85     10.24    10.61    11.13    
 11.64    12.39    13.30    14.32    15.54    17.77    20.29    22.33    24.48    26.94    
 29.61    32.28    36.00    40.17    44.63    49.19    54.11    59.22    64.44    69.71    
 74.89    80.18    85.26    90.40    95.37    100.62   106.09   109.59   115.86   120.18   
 124.41   128.87   133.88   139.49   146.19   154.37   164.32   176.75   191.10   206.61   
 224.04   
759177.00 755762.55 749082.06 735876.88 707016.21 654266.55 584185.96 499381.28 411408.80 328445.22 
 258934.32 204024.00 163143.94 132635.72 114260.26 96013.09 77765.92 65512.57 55785.11 47576.94 
 41174.65 35554.02 30535.90 26199.85 22573.95 19402.27 16876.17 14867.22 13369.52 12134.09 
 11358.83 10589.19 9819.55  9270.00  8783.18  8356.45  7971.70  7633.07  7320.18  7035.38  
 6792.19  6575.06  6349.99  6138.58  5914.75  5687.62  5453.78  5221.04  4991.46  4778.06  
 4578.36  4392.80  4217.23  4048.87  3875.87  3704.39  3528.99  3357.88  3175.80  2983.75  
 2802.23  2622.49  2450.14  2281.81  2117.07  1962.20  1800.37  1640.42  1486.79  1341.49  
 1197.07  1061.83  926.68   802.08   684.17   577.08   474.96   384.45   306.10   239.24   
 181.87   132.87   95.14    57.53    32.18    10.91    6.32     5.54     5.24     5.04     
 4.85     4.76     4.72     4.68     4.72     4.74     4.52     4.52     4.73     4.94     
 5.09     5.26     5.48     5.73     5.98     6.23     6.47     6.72     6.99     7.30     
 7.54     7.85     8.22     8.51     8.89     9.30     9.72     10.18    10.62    11.06    
 11.49    11.94    12.42    12.90    13.39    13.89    14.42    14.96    15.56    16.17    
 16.75    17.37    18.05    18.75    19.46    20.27    21.20    22.27    23.59    25.17    
 27.09    29.42    32.37    36.19    41.07    47.16    54.59    63.57    74.37    87.36    
 102.95   120.46   139.28   159.36   179.96   200.99   224.02   247.07   270.12   290.54   
 308.85   325.70   341.00   353.25   362.66   369.51   373.06   374.54   372.18   367.16   
 359.69   350.16   339.42   327.60   314.89   301.24   286.82   271.96   256.63   241.55   
 224.04   
759177.00 757580.92 753292.15 744306.26 724527.15 684148.20 625002.66 551228.14 463695.66 374359.90 
 309826.41 245292.90 180990.80 144027.97 117982.23 96609.26 77610.04 64590.31 54667.92 46966.79 
 40505.74 34169.85 28870.03 24846.88 20828.61 17378.54 14633.40 12535.36 10895.50 9610.45  
 8449.22  7546.66  6849.94  6281.32  5761.56  5270.91  4857.23  4482.05  4170.05  3858.57  
 3601.09  3337.02  3098.17  2889.17  2654.60  2419.82  2160.19  1910.78  1648.96  1391.28  
 1132.64  901.51   699.18   564.60   465.75   388.64   319.69   271.11   222.52   174.10   
 143.35   118.71   97.76    79.90    66.40    54.48    45.67    39.03    34.01    29.79    
 26.00    23.49    20.91    17.99    11.73    10.84    9.93     9.13     8.37     7.70     
 6.90     6.18     5.35     4.43     3.58     3.26     3.32     3.44     3.55     3.69     
 3.83     4.00     4.17     4.35     4.55     4.77     5.00     5.24     5.48     5.74     
 5.99     6.25     6.53     6.82     7.13     7.43     7.74     8.07     8.42     8.78     
 9.15     9.52     9.93     10.36    10.79    11.25    11.72    12.20    12.69    13.18    
 13.67    14.19    14.72    15.27    15.81    16.38    16.98    17.66    18.31    19.01    
 19.76    20.54    21.38    22.20    23.11    24.14    25.29    26.61    28.12    29.87    
 31.82    34.22    37.27    41.03    45.55    51.14    58.03    66.40    76.49    88.61    
 102.66   119.56   136.50   156.28   177.13   198.93   221.66   243.63   266.61   288.18   
 308.46   326.84   342.74   356.57   367.65   375.71   380.71   382.48   381.09   376.56   
 369.37   359.97   349.10   336.26   322.40   307.85   292.65   276.81   259.87   242.70   
 224.04   
759177.00 758743.10 755268.97 748760.03 734887.68 706972.85 656584.75 589801.41 492609.45 385315.49 
 297496.03 224514.17 171104.59 133970.08 112264.75 90722.21 69179.68 55484.40 46975.49 39121.30 
 33095.17 28277.78 22073.01 18686.62 15838.36 13400.78 11442.92 9886.10  8333.33  7091.69  
 6097.23  5120.35  4050.55  3326.50  2684.20  2164.76  1769.88  1425.30  1133.00  857.98   
 583.18   381.84   259.88   193.02   150.46   121.60   102.13   82.76    71.38    61.83    
 54.07    47.58    42.55    38.27    35.21    32.19    29.44    26.96    25.48    24.02    
 22.62    21.42    19.75    15.51    10.77    10.02    9.41     8.89     8.44     8.02     
 7.68     7.36     7.09     6.77     6.48     6.18     5.89     5.58     5.26     4.91     
 4.59     4.26     3.98     3.79     3.73     3.76     3.89     4.05     4.21     4.38     
 4.57     4.76     4.96     5.20     5.43     5.68     5.95     6.23     6.51     6.80     
 7.11     7.41     7.74     8.07     8.41     8.76     9.10     9.45     9.83     10.21    
 10.61    11.02    11.43    11.85    12.29    12.75    13.23    13.68    14.16    14.64    
 15.13    15.63    16.15    16.68    17.21    17.74    18.32    18.92    19.55    20.22    
 20.91    21.65    22.48    23.39    24.41    25.54    26.89    28.44    30.22    32.26    
 34.60    37.34    40.61    44.47    49.09    54.74    61.38    69.41    79.03    90.76    
 104.33   119.67   136.75   155.41   176.56   198.43   221.03   244.70   268.39   291.30   
 312.50   331.56   348.68   363.24   374.50   382.83   387.64   388.88   386.73   381.61   
 373.94   363.74   351.77   338.37   323.86   307.72   291.23   273.49   254.98   236.67   
 224.04   
759177.00 760216.94 758230.29 754721.78 747297.22 730595.42 671823.53 585331.52 502152.31 408598.06 
 330089.03 251580.04 173343.95 127366.43 96638.96 75068.20 54160.70 44695.19 38195.14 33707.69 
 29858.37 26576.17 23293.97 19991.98 14369.97 11704.74 8627.91  6102.20  4917.81  3776.38  
 2634.95  1495.47  617.97   463.28   308.58   154.86   114.19   87.63    69.95    59.15    
 50.51    44.62    39.09    34.87    31.55    28.63    25.97    24.26    22.80    21.73    
 20.86    19.79    19.03    18.21    17.41    15.68    12.04    8.85     8.33     8.03     
 7.75     7.43     7.17     6.94     6.72     6.51     6.33     6.16     5.98     5.82     
 5.67     5.50     5.34     5.15     4.94     4.75     4.58     4.41     4.27     4.15     
 4.03     3.91     3.82     3.82     3.85     3.96     4.08     4.22     4.36     4.52     
 4.67     4.84     5.00     5.21     5.42     5.64     5.88     6.13     6.40     6.69     
 6.97     7.27     7.58     7.91     8.26     8.60     8.96     9.32     9.68     10.06    
 10.44    10.83    11.24    11.67    12.09    12.54    13.01    13.47    13.96    14.46    
 14.97    15.51    16.06    16.63    17.21    17.81    18.45    19.14    19.86    20.64    
 21.48    22.38    23.40    24.49    25.68    27.02    28.58    30.29    32.18    34.34    
 36.87    39.70    42.91    46.65    51.03    56.25    62.34    69.63    78.21    88.57    
 100.74   116.08   131.45   149.85   170.13   192.22   215.39   238.73   263.48   287.19   
 310.08   331.33   350.29   366.61   379.32   388.57   393.88   395.44   393.39   388.12   
 380.13   370.13   357.85   344.27   329.23   312.94   294.94   276.21   256.50   236.76   
 224.04   
759177.00 761237.86 760477.38 757730.94 751364.22 708876.63 646233.61 582715.20 499348.62 401481.77 
 309462.56 226620.25 161474.36 112518.48 87444.35 62623.21 51348.95 43131.05 36854.22 32076.26 
 23565.21 18960.39 14112.94 10940.44 7786.79  4633.14  2665.72  982.08   602.88   240.35   
 167.50   143.38   107.02   70.51    60.04    53.45    42.38    36.70    32.49    28.93    
 25.74    23.01    21.24    20.02    19.33    18.62    17.62    16.70    15.52    14.58    
 13.35    10.82    8.45     7.80     7.28     6.74     6.39     6.19     6.00     5.84     
 5.69     5.56     5.47     5.36     5.25     5.16     5.14     5.16     5.21     5.23     
 5.24     5.24     5.17     5.07     4.93     4.79     4.63     4.47     4.34     4.24     
 4.16     4.08     4.04     4.04     4.08     4.15     4.24     4.34     4.45     4.59     
 4.72     4.87     5.03     5.20     5.41     5.62     5.86     6.11     6.36     6.65     
 6.93     7.23     7.54     7.87     8.20     8.56     8.91     9.29     9.67     10.07    
 10.48    10.91    11.35    11.80    12.26    12.73    13.20    13.68    14.16    14.66    
 15.20    15.75    16.33    16.93    17.54    18.20    18.92    19.68    20.48    21.35    
 22.27    23.27    24.42    25.66    27.06    28.60    30.34    32.32    34.54    37.05    
 39.80    42.84    46.28    50.28    54.81    59.97    65.88    72.76    81.03    91.04    
 102.76   116.29   131.78   149.63   169.80   191.42   214.02   238.78   263.56   288.14   
 311.82   333.53   353.92   371.42   384.92   394.32   399.46   400.46   397.49   391.48   
 382.98   372.39   360.16   346.68   331.61   315.41   297.41   278.24   258.46   237.60   
 224.04   
759177.00 762949.44 762860.48 761637.12 756191.03 702142.61 641887.82 585129.64 505195.35 419556.22 
 331573.36 243590.50 155897.69 102621.91 80121.95 64081.56 52091.06 42966.06 35160.93 26359.26 
 17582.99 12132.63 9432.47  5546.94  3259.85  989.27   567.15   148.77   127.04   113.03   
 84.48    46.21    29.09    22.14    18.79    16.95    15.53    14.45    13.79    13.05    
 12.32    11.48    10.95    10.27    9.50     9.01     8.70     8.41     7.53     6.26     
 5.82     5.65     5.43     5.12     4.85     4.76     4.66     4.55     4.40     4.43     
 4.91     5.20     5.20     5.08     4.85     4.61     4.37     4.13     3.96     3.77     
 3.61     3.51     3.45     3.41     3.40     3.38     3.38     3.38     3.38     3.38     
 3.40     3.43     3.47     3.53     3.61     3.71     3.82     3.93     4.06     4.20     
 4.35     4.49     4.65     4.82     5.03     5.24     5.47     5.71     5.97     6.25     
 6.53     6.82     7.10     7.39     7.70     8.03     8.37     8.73     9.09     9.46     
 9.85     10.25    10.69    11.12    11.58    12.07    12.57    13.09    13.60    14.14    
 14.71    15.30    15.93    16.58    17.24    17.91    18.63    19.39    20.20    21.07    
 22.01    23.04    24.18    25.43    26.81    28.41    30.21    32.31    34.58    37.18    
 40.17    43.41    47.07    51.12    55.71    60.89    66.71    73.46    81.21    90.65    
 101.76   116.06   130.40   148.05   167.47   188.97   212.01   235.36   259.75   284.34   
 308.11   330.92   352.31   371.85   387.51   399.24   406.12   408.51   406.62   400.85   
 391.96   380.71   368.51   354.93   340.39   324.67   306.29   287.00   265.81   243.88   
 224.04   
759177.00 763432.29 763555.98 762338.96 757217.69 699739.93 639066.56 577222.08 493082.81 411850.57 
 314172.94 224193.31 141489.32 114315.91 87748.08 61180.26 49436.77 40276.78 27284.11 20710.35 
 15532.96 11602.35 7686.19  3770.02  1737.93  1161.01  599.49   37.96    23.74    19.27    
 17.67    16.14    14.73    13.44    12.02    10.50    9.23     8.17     7.47     7.19     
 6.99     6.96     6.81     6.49     6.24     6.15     6.08     5.86     5.85     5.73     
 5.24     4.84     4.54     4.24     4.16     4.04     3.98     3.96     3.93     3.90     
 3.87     3.85     3.83     3.81     3.81     3.81     3.81     3.81     3.81     3.81     
 3.81     3.81     3.83     3.85     3.84     3.84     3.85     3.82     3.81     3.80     
 3.79     3.79     3.79     3.85     3.90     3.99     4.09     4.21     4.33     4.44     
 4.59     4.75     4.92     5.13     5.33     5.53     5.76     5.99     6.23     6.48     
 6.72     6.96     7.23     7.51     7.83     8.16     8.50     8.86     9.23     9.61     
 10.01    10.43    10.87    11.33    11.80    12.28    12.78    13.30    13.86    14.44    
 15.04    15.66    16.33    17.00    17.67    18.37    19.12    19.90    20.73    21.61    
 22.56    23.59    24.77    26.08    27.54    29.14    31.00    33.09    35.51    38.25    
 41.28    44.63    48.41    52.77    57.63    63.07    69.04    75.76    83.76    93.25    
 104.44   117.48   132.79   150.30   169.85   191.16   214.04   238.85   263.68   287.68   
 310.81   333.16   354.08   373.24   389.26   400.87   407.90   409.99   407.53   401.04   
 391.42   379.36   366.46   352.31   338.11   322.41   305.45   286.89   266.61   245.01   
 224.04   
