IESNA:LM-63-2002
[TEST] 1
[TESTLAB] AOK
[TESTDATE] 2022-05-30
[ISSUEDATE] 2022-05-31 09:07:55
[NEARFIELD] 
[LAMPPOSITION] 0,0
[OTHER] EVERFINE GO-2000A_V1 SYSTEM
[MANUFAC] AOK
[LUMCAT] A
[LUMINAIRE] AOK-800WiSF-NV-S35-00-5070-15D-P
[LAMPCAT] B
[LAMP] 5050
[BALLAST] E
[BALLASTCAT] F
[OTHER] 
[OTHER] Gamma(deg)    Fz(lm)      Ft(lm)     %Lum    %Lamp
[OTHER]   0- 10     46440.23    46440.23    46.32    46.32
[OTHER]  10- 20     26498.15    72938.38    72.75    72.75
[OTHER]  20- 30      9645.03    82583.41    82.37    82.37
[OTHER]  30- 40      5067.92    87651.33    87.42    87.42
[OTHER]  40- 50      4149.55    91800.89    91.56    91.56
[OTHER]  50- 60      3400.44    95201.33    94.95    94.95
[OTHER]  60- 70      2438.83    97640.15    97.38    97.38
[OTHER]  70- 80      1304.52    98944.67    98.69    98.69
[OTHER]  80- 90       529.04    99473.71    99.21    99.21
[OTHER]  90-100       234.90    99708.61    99.45    99.45
[OTHER] 100-110       140.21    99848.82    99.59    99.59
[OTHER] 110-120       105.05    99953.86    99.69    99.69
[OTHER] 120-130        78.54   100032.40    99.77    99.77
[OTHER] 130-140        53.22   100085.62    99.82    99.82
[OTHER] 140-150        38.06   100123.67    99.86    99.86
[OTHER] 150-160        53.50   100177.17    99.91    99.91
[OTHER] 160-170        63.99   100241.16    99.98    99.98
[OTHER] 170-180        21.70   100262.86   100.00   100.00
[OTHER] 
TILT=NONE
1 1.0026e+005 1 181 25 1 2 0.150 0.200 0.000
1.000 1 751.266
0.0    1.0    2.0    3.0    4.0    5.0    6.0    7.0    8.0    9.0    
 10.0   11.0   12.0   13.0   14.0   15.0   16.0   17.0   18.0   19.0   
 20.0   21.0   22.0   23.0   24.0   25.0   26.0   27.0   28.0   29.0   
 30.0   31.0   32.0   33.0   34.0   35.0   36.0   37.0   38.0   39.0   
 40.0   41.0   42.0   43.0   44.0   45.0   46.0   47.0   48.0   49.0   
 50.0   51.0   52.0   53.0   54.0   55.0   56.0   57.0   58.0   59.0   
 60.0   61.0   62.0   63.0   64.0   65.0   66.0   67.0   68.0   69.0   
 70.0   71.0   72.0   73.0   74.0   75.0   76.0   77.0   78.0   79.0   
 80.0   81.0   82.0   83.0   84.0   85.0   86.0   87.0   88.0   89.0   
 90.0   91.0   92.0   93.0   94.0   95.0   96.0   97.0   98.0   99.0   
 100.0  101.0  102.0  103.0  104.0  105.0  106.0  107.0  108.0  109.0  
 110.0  111.0  112.0  113.0  114.0  115.0  116.0  117.0  118.0  119.0  
 120.0  121.0  122.0  123.0  124.0  125.0  126.0  127.0  128.0  129.0  
 130.0  131.0  132.0  133.0  134.0  135.0  136.0  137.0  138.0  139.0  
 140.0  141.0  142.0  143.0  144.0  145.0  146.0  147.0  148.0  149.0  
 150.0  151.0  152.0  153.0  154.0  155.0  156.0  157.0  158.0  159.0  
 160.0  161.0  162.0  163.0  164.0  165.0  166.0  167.0  168.0  169.0  
 170.0  171.0  172.0  173.0  174.0  175.0  176.0  177.0  178.0  179.0  
 180.0  
0.0    15.0   30.0   45.0   60.0   75.0   90.0   105.0  120.0  135.0  
 150.0  165.0  180.0  195.0  210.0  225.0  240.0  255.0  270.0  285.0  
 300.0  315.0  330.0  345.0  360.0  
727664.06 731058.74 730976.37 729001.00 719304.93 654719.37 599371.81 535201.71 455979.69 371607.54 
 281338.85 199760.13 121714.51 95638.15 70128.94 55790.33 45161.10 36862.52 24529.15 17817.16 
 13325.77 9376.42  6273.36  3179.94  1034.14  75.77    48.54    30.94    22.94    20.00    
 18.11    16.60    15.20    13.84    12.33    10.79    9.57     8.50     7.87     7.55     
 7.32     7.23     6.96     6.55     6.32     6.21     6.14     5.97     5.92     5.64     
 5.13     4.75     4.45     4.21     4.11     3.99     3.94     3.91     3.88     3.83     
 3.79     3.76     3.74     3.71     3.71     3.71     3.71     3.70     3.70     3.69     
 3.69     3.68     3.68     3.67     3.67     3.66     3.66     3.65     3.64     3.62     
 3.62     3.62     3.63     3.68     3.73     3.80     3.90     4.01     4.12     4.24     
 4.38     4.52     4.69     4.88     5.08     5.28     5.48     5.70     5.92     6.16     
 6.37     6.61     6.86     7.13     7.42     7.73     8.05     8.38     8.73     9.10     
 9.47     9.86     10.27    10.70    11.14    11.61    12.08    12.58    13.08    13.62    
 14.18    14.78    15.40    16.04    16.69    17.35    18.04    18.80    19.60    20.45    
 21.38    22.37    23.48    24.77    26.19    27.77    29.56    31.63    33.96    36.65    
 39.59    42.89    46.65    50.85    55.53    60.78    66.68    73.44    81.37    90.71    
 101.75   114.74   129.83   146.93   166.16   186.87   208.78   232.60   256.43   279.33   
 301.28   322.35   342.06   359.71   374.24   384.35   390.02   391.12   387.94   381.11   
 371.35   359.88   347.36   333.57   319.60   304.47   288.00   269.91   250.35   229.90   
 208.72   
727664.06 732071.78 732455.17 730901.49 725383.83 685727.34 621075.94 558062.64 480571.45 399172.88 
 317495.08 235817.29 154326.79 95211.89 73576.69 58457.73 47310.21 38820.49 31533.98 24247.46 
 16989.15 13394.78 9109.84  5774.70  4642.14  3509.57  2377.01  1244.44  122.61   109.80   
 75.84    57.58    64.43    44.95    29.19    22.45    19.30    17.23    16.17    15.54    
 14.96    13.88    12.86    11.60    10.58    9.66     8.94     8.34     7.90     7.57     
 7.20     6.74     6.18     5.43     5.00     4.71     4.60     4.75     4.82     4.82     
 4.73     4.62     4.53     4.46     4.35     4.28     4.24     4.21     4.15     4.05     
 3.95     3.86     3.76     3.69     3.60     3.51     3.44     3.37     3.31     3.24     
 3.23     3.23     3.24     3.27     3.34     3.43     3.52     3.61     3.72     3.83     
 3.97     4.12     4.27     4.45     4.65     4.86     5.08     5.30     5.53     5.77     
 6.02     6.29     6.57     6.85     7.16     7.45     7.76     8.10     8.44     8.79     
 9.15     9.51     9.90     10.33    10.74    11.20    11.66    12.15    12.65    13.16    
 13.70    14.26    14.87    15.47    16.08    16.73    17.43    18.15    18.92    19.76    
 20.67    21.69    22.80    24.02    25.40    26.99    28.80    30.88    33.13    35.74    
 38.71    42.02    45.65    49.78    54.35    59.55    65.36    72.05    79.74    88.92    
 99.80    112.21   127.23   144.40   163.21   183.74   205.78   228.09   251.52   274.65   
 297.25   318.89   339.25   357.86   372.96   383.94   390.36   392.30   390.04   384.08   
 375.16   364.28   352.10   339.04   325.10   310.12   293.35   275.40   255.85   236.01   
 208.72   
727664.06 731517.85 731875.97 728825.62 721891.54 707220.39 642444.05 564444.74 480388.98 388498.35 
 299486.41 220931.18 160371.28 112420.51 83766.79 55317.55 45020.06 37715.26 32309.31 27785.18 
 24078.91 17852.81 14055.88 11180.77 8315.70  5450.63  3350.46  2008.65  1423.96  848.87   
 273.77   168.02   134.06   111.70   89.47    70.77    60.53    51.33    39.87    32.56    
 27.86    23.88    21.13    19.18    17.86    16.79    15.79    14.89    14.04    13.26    
 12.77    12.27    11.80    11.20    10.36    9.26     8.30     7.55     6.98     6.73     
 6.53     6.30     6.09     5.92     5.79     5.65     5.52     5.39     5.28     5.16     
 5.02     4.84     4.66     4.50     4.32     4.14     3.96     3.77     3.61     3.46     
 3.33     3.24     3.19     3.19     3.25     3.34     3.45     3.57     3.70     3.84     
 4.00     4.17     4.35     4.55     4.77     4.99     5.23     5.47     5.72     5.98     
 6.26     6.54     6.83     7.13     7.44     7.76     8.09     8.43     8.79     9.17     
 9.55     9.93     10.36    10.77    11.20    11.64    12.10    12.56    13.04    13.53    
 14.04    14.54    15.10    15.69    16.31    16.93    17.65    18.40    19.23    20.11    
 21.06    22.09    23.24    24.55    26.01    27.61    29.44    31.49    33.73    36.24    
 39.02    42.22    45.79    49.80    54.25    59.31    65.20    72.05    80.07    89.57    
 100.78   113.78   128.59   145.62   165.02   185.57   207.19   231.40   255.65   279.09   
 301.70   323.65   344.02   361.07   375.14   384.98   390.84   392.51   390.45   384.68   
 376.49   366.02   354.45   341.43   327.24   311.65   294.40   275.67   255.28   234.47   
 208.72   
727664.06 731007.58 730930.68 726621.24 716276.85 694297.25 653312.57 584081.30 485431.67 392968.14 
 315875.72 238783.31 162005.09 122253.96 87045.05 67834.79 52000.70 42981.71 31532.58 27787.01 
 24041.44 20304.36 17636.46 14979.53 12429.74 10184.12 7424.96  5812.17  4439.52  3403.88  
 2678.65  1955.00  1432.67  939.00   473.52   361.90   250.28   139.36   105.26   85.53    
 72.62    61.10    52.84    46.14    40.46    35.64    31.89    28.04    25.48    23.52    
 21.23    20.02    19.08    18.66    17.80    16.83    15.90    15.19    14.61    14.09    
 13.28    12.01    9.95     8.24     7.70     7.38     7.10     6.86     6.68     6.51     
 6.31     6.12     5.90     5.67     5.42     5.13     4.83     4.51     4.17     3.83     
 3.54     3.27     3.07     3.00     3.03     3.12     3.24     3.37     3.51     3.66     
 3.83     4.01     4.20     4.41     4.63     4.88     5.12     5.38     5.64     5.92     
 6.21     6.50     6.81     7.14     7.47     7.81     8.14     8.51     8.88     9.25     
 9.62     10.00    10.41    10.83    11.25    11.69    12.15    12.63    13.12    13.62    
 14.12    14.67    15.23    15.80    16.39    17.01    17.68    18.39    19.16    19.99    
 20.88    21.91    23.00    24.19    25.50    26.97    28.62    30.44    32.43    34.71    
 37.33    40.22    43.57    47.38    51.80    56.97    62.99    70.10    78.35    88.28    
 100.00   114.64   129.31   146.84   166.11   187.10   209.52   232.47   256.46   280.02   
 302.82   324.12   343.15   359.88   373.16   382.78   388.71   390.82   389.09   384.07   
 376.39   366.53   355.04   341.58   326.98   309.75   290.92   271.52   251.16   230.48   
 208.72   
727664.06 729397.21 727109.80 719332.01 700360.68 662640.62 605027.55 537480.50 455243.48 369533.34 
 288152.97 210955.41 154071.70 119037.53 95323.42 71727.61 57957.18 46013.93 39497.98 33299.40 
 26782.50 22809.64 18604.67 15456.86 12432.16 10386.46 8351.25  7234.07  6473.74  5840.86  
 5355.49  4914.56  4483.79  4070.43  3551.02  3050.94  2549.47  2105.99  1704.91  1400.82  
 1150.45  900.73   651.01   453.19   299.35   212.65   154.71   130.73   107.12   83.51    
 70.73    60.99    55.38    51.05    44.96    40.33    36.78    33.42    30.09    27.37    
 25.70    24.07    22.44    21.33    20.20    19.17    18.04    16.72    14.72    11.18    
 9.52     8.82     8.38     8.06     7.77     7.39     7.00     6.59     6.12     5.61     
 5.02     4.41     3.89     3.49     3.38     3.41     3.52     3.66     3.81     3.95     
 4.13     4.32     4.51     4.73     4.95     5.19     5.43     5.68     5.95     6.24     
 6.53     6.82     7.13     7.45     7.78     8.12     8.47     8.83     9.21     9.59     
 9.97     10.37    10.79    11.22    11.66    12.12    12.58    13.05    13.53    14.02    
 14.51    15.00    15.53    16.09    16.66    17.25    17.88    18.57    19.30    20.06    
 20.90    21.81    22.83    23.92    25.18    26.55    28.11    29.89    31.94    34.21    
 36.82    39.77    43.19    47.35    52.26    58.00    64.71    72.51    81.75    93.19    
 106.45   121.34   137.86   155.64   174.65   196.22   218.88   242.11   265.34   287.53   
 308.97   328.23   344.99   359.92   371.75   380.16   385.28   386.29   384.14   379.04   
 370.84   359.91   346.83   332.68   316.62   299.02   281.15   262.79   244.30   225.28   
 208.72   
727664.06 727988.62 723860.05 712188.19 686392.47 637891.74 569987.62 494176.20 408532.73 324635.91 
 259233.79 194012.14 150750.87 116776.10 93666.45 76534.35 63023.25 52508.11 44604.30 38664.08 
 33412.12 28964.17 24788.44 20622.37 17608.14 15330.25 13533.32 12080.35 11003.61 10090.47 
 9272.26  8496.65  7817.34  7246.21  6703.47  6219.65  5774.57  5414.90  5073.72  4724.75  
 4404.99  4100.37  3821.71  3555.59  3289.21  3039.49  2802.27  2565.04  2327.93  2104.04  
 1880.91  1646.37  1404.58  1172.58  946.25   734.66   559.18   434.82   344.55   292.82   
 241.09   189.52   154.32   124.62   101.98   85.01    71.55    60.20    51.17    42.96    
 36.65    31.55    27.37    24.51    21.97    19.90    17.59    14.85    10.94    9.56     
 8.83     7.88     6.71     5.17     3.71     3.07     3.12     3.21     3.31     3.43     
 3.57     3.71     3.87     4.06     4.26     4.46     4.69     4.92     5.18     5.44     
 5.69     5.96     6.23     6.53     6.83     7.15     7.48     7.83     8.19     8.56     
 8.96     9.36     9.78     10.20    10.64    11.08    11.57    12.06    12.56    13.05    
 13.56    14.07    14.63    15.20    15.78    16.38    17.06    17.73    18.48    19.28    
 20.13    21.06    22.08    23.14    24.32    25.62    27.22    28.92    30.82    33.05    
 35.52    38.33    41.86    46.01    51.01    57.03    64.21    72.90    83.03    95.19    
 108.99   125.61   142.26   161.40   181.67   202.87   225.02   246.70   268.94   290.07   
 309.89   327.82   343.59   357.16   367.84   375.92   380.80   382.36   380.89   376.44   
 369.57   360.11   348.07   333.63   318.18   302.06   285.04   267.97   249.90   232.52   
 208.72   
727664.06 727304.75 723152.33 712767.57 688596.62 641513.96 571682.29 492024.76 403065.54 318513.47 
 254496.82 190711.99 148030.20 115579.35 92605.34 75898.07 62851.16 52522.60 44370.18 38494.55 
 33472.54 29147.33 25480.74 21824.72 19116.92 17007.29 15346.22 14035.11 13024.31 12211.23 
 11450.17 10731.39 10148.78 9594.99  9097.90  8664.82  8275.43  7921.66  7594.14  7305.49  
 7016.51  6764.49  6531.91  6286.31  6048.65  5811.20  5555.95  5307.78  5053.11  4819.63  
 4599.88  4400.54  4216.06  4045.49  3873.38  3711.98  3549.40  3387.55  3219.37  3053.99  
 2889.83  2728.26  2566.69  2405.28  2256.49  2099.36  1945.26  1797.29  1651.17  1506.32  
 1367.40  1232.46  1108.20  987.55   872.49   760.54   655.87   560.89   476.54   401.06   
 332.36   277.38   222.40   167.62   128.82   93.86    68.59    44.90    18.56    5.64     
 3.28     2.61     2.41     2.27     2.26     2.22     2.06     1.51     1.55     1.62     
 1.63     1.63     1.58     1.61     1.67     1.74     1.85     1.88     1.90     2.01     
 2.09     2.07     2.18     2.31     2.32     2.44     2.57     2.74     2.92     3.00     
 3.08     3.17     3.25     3.36     3.47     3.59     3.72     3.87     4.03     4.20     
 4.38     4.59     4.83     5.07     5.31     5.58     5.92     6.30     6.76     7.31     
 7.95     8.69     9.59     10.76    12.08    13.68    15.55    17.64    20.08    22.72    
 25.62    28.67    32.01    35.59    39.51    43.68    48.15    52.84    57.86    62.87    
 67.97    73.28    78.58    84.08    89.57    95.29    101.21   107.37   113.30   119.95   
 126.16   132.80   138.42   143.77   150.40   158.13   166.77   176.27   187.09   199.16   
 208.72   
727664.06 725632.37 719203.51 704318.82 672916.36 618900.38 539872.05 452742.97 366717.03 289544.21 
 224912.62 177337.39 141470.47 114315.12 96091.21 77937.06 65348.95 55993.09 48407.55 42181.41 
 36772.89 31854.85 27455.77 23544.49 20317.26 17913.35 16156.92 14943.65 14041.06 13302.44 
 12687.07 12116.04 11661.96 11208.93 10755.90 10420.30 10121.14 9854.95  9596.09  9373.58  
 9185.64  8997.64  8827.95  8638.51  8401.12  8157.32  7892.76  7631.62  7396.81  7165.79  
 6947.76  6738.78  6540.23  6343.37  6150.11  5959.28  5780.41  5589.29  5400.47  5204.88  
 5011.24  4824.50  4640.09  4440.98  4240.13  4042.06  3856.36  3678.33  3491.60  3290.06  
 3099.56  2917.51  2739.61  2552.90  2374.85  2205.64  2046.87  1887.00  1738.66  1595.61  
 1462.95  1345.93  1233.01  1130.34  1027.74  925.14   836.68   758.27   690.23   630.64   
 580.78   529.97   482.24   438.44   396.90   359.30   325.57   295.13   268.89   244.26   
 222.27   200.85   184.21   168.97   154.52   140.67   128.37   116.18   103.99   92.51    
 82.10    73.07    65.02    57.26    49.39    42.12    35.30    29.23    23.91    19.96    
 12.82    4.52     2.99     2.88     2.94     3.06     3.21     3.34     3.52     3.67     
 3.97     4.45     4.90     5.43     6.06     6.70     7.00     6.71     6.68     7.07     
 7.54     8.13     8.93     9.86     11.74    13.05    14.64    16.64    18.88    21.41    
 24.28    27.38    30.19    32.97    36.79    40.80    45.10    49.47    53.91    58.46    
 63.05    67.75    72.44    77.30    82.23    87.40    92.59    97.77    103.24   109.31   
 114.38   120.37   126.39   132.72   140.03   148.12   157.45   168.42   180.74   194.84   
 208.72   
727664.06 724876.75 717672.45 701597.33 668311.20 612639.90 534965.98 447136.46 362229.25 302766.03 
 243302.83 184116.27 150060.23 123478.67 103120.51 88274.93 76545.46 66832.37 58918.19 52028.28 
 45837.95 40028.24 34950.53 30447.32 27153.67 23860.02 20579.80 18426.66 16775.07 15535.83 
 14563.38 13766.16 13083.75 12572.08 12180.79 11849.43 11545.46 11271.47 11012.53 10750.86 
 10524.96 10301.70 10082.72 9875.46  9685.23  9486.67  9254.93  9007.05  8738.62  8480.83  
 8248.34  8038.12  7829.74  7611.23  7391.38  7176.46  6975.89  6778.51  6581.80  6373.77  
 6150.10  5913.12  5660.40  5419.75  5191.16  4956.05  4726.92  4500.10  4264.90  4027.59  
 3779.56  3533.28  3299.88  3080.51  2871.06  2661.63  2452.29  2251.99  2068.23  1894.27  
 1731.30  1578.68  1444.26  1322.00  1215.35  1114.88  1023.94  942.30   872.20   812.31   
 761.59   703.79   648.08   595.86   548.71   507.52   471.12   438.15   409.25   382.70   
 358.77   339.46   322.99   308.20   295.19   283.21   272.32   262.42   253.82   246.31   
 238.55   230.82   226.45   220.69   214.22   207.70   201.34   194.53   187.58   180.98   
 174.05   166.64   159.12   151.26   142.90   134.73   126.04   116.93   108.22   97.57    
 85.48    70.97    49.33    28.39    17.12    13.78    13.29    7.99     4.24     4.38     
 4.75     5.23     5.85     6.65     7.71     9.02     10.57    12.46    14.79    17.63    
 20.78    24.31    30.21    42.49    34.55    37.19    41.49    45.96    50.66    55.49    
 60.24    64.90    69.50    74.03    78.36    82.65    86.81    90.99    95.19    99.51    
 103.86   108.90   114.67   121.07   128.18   136.45   146.29   157.13   169.80   184.88   
 208.72   
727664.06 723206.34 713355.87 692580.90 654448.24 593119.63 511860.99 424779.72 344218.22 275333.76 
 220654.76 180046.21 149566.38 127250.03 112988.89 98790.68 84592.47 75705.68 68302.98 61083.26 
 54726.73 48842.46 43167.03 38056.39 33619.98 29842.94 26669.98 24036.89 21742.65 19703.40 
 17918.31 16399.20 15177.64 14277.55 13632.21 13138.65 12693.59 12296.19 11947.39 11637.54 
 11328.08 11053.24 10805.06 10593.82 10391.29 10160.90 9910.70  9689.90  9484.10  9244.07  
 8978.53  8712.88  8469.16  8236.42  8011.35  7775.98  7534.13  7273.47  6994.29  6717.75  
 6445.63  6185.43  5921.83  5657.40  5394.55  5148.47  4903.74  4654.24  4388.32  4113.89  
 3848.97  3604.49  3362.04  3116.54  2874.21  2654.63  2438.06  2217.93  2018.91  1836.84  
 1674.47  1525.84  1382.11  1251.56  1154.86  1058.51  962.16   882.61   816.71   764.50   
 714.35   656.26   602.36   555.85   516.40   481.71   453.05   428.23   406.96   388.43   
 372.55   359.09   347.38   337.10   328.16   319.02   311.27   304.16   297.57   290.89   
 284.86   279.53   273.85   268.95   263.62   258.47   253.57   249.63   245.47   241.31   
 237.45   233.34   229.35   225.66   221.03   216.35   210.77   205.48   200.55   195.31   
 190.11   182.94   174.75   166.52   158.29   150.27   141.44   132.21   121.42   110.62   
 98.32    83.90    53.87    18.74    11.36    10.45    10.30    10.93    13.03    15.49    
 18.30    21.39    24.79    28.55    32.56    36.77    41.58    46.69    52.13    61.46    
 76.31    68.13    73.93    79.97    85.70    90.97    95.51    99.63    103.10   106.13   
 108.59   111.15   114.20   118.01   123.37   130.57   139.63   151.37   164.71   181.05   
 208.72   
727664.06 722436.56 711977.69 690958.26 650891.68 585698.21 502877.22 417741.79 339184.61 287727.45 
 236270.29 185062.50 156502.06 134435.47 116749.90 102850.31 91599.07 82446.81 74472.69 67181.70 
 60307.98 53862.54 47759.46 42408.97 37585.96 33536.59 30139.73 27123.90 24764.28 22410.75 
 20538.12 18921.99 17655.02 16719.19 15924.53 15210.91 14513.70 13857.65 13282.55 12817.11 
 12402.27 12023.99 11659.81 11332.25 11036.59 10778.13 10533.11 10279.33 10024.42 9742.50  
 9464.51  9182.50  8898.00  8604.35  8311.69  8036.74  7778.22  7528.17  7286.41  7038.68  
 6791.47  6553.96  6296.44  6029.13  5742.92  5437.94  5128.08  4810.32  4498.24  4195.94  
 3912.44  3635.83  3369.74  3118.43  2871.30  2639.71  2408.26  2191.04  1987.69  1805.04  
 1627.86  1468.54  1318.11  1195.21  1086.79  993.22   910.95   836.95   778.11   729.06   
 683.77   629.28   577.05   531.12   492.63   462.83   436.52   414.79   396.07   378.60   
 366.01   355.58   347.30   339.72   332.88   327.07   321.52   316.11   311.47   306.71   
 301.90   297.44   293.14   289.10   284.51   280.26   275.53   270.80   266.30   261.88   
 257.94   253.57   249.96   246.02   242.45   237.38   232.32   227.81   223.38   219.11   
 214.71   210.30   205.83   201.19   196.37   191.14   186.23   179.72   173.07   166.22   
 157.95   149.59   140.92   127.35   114.50   102.85   95.91    80.92    27.08    21.86    
 23.56    23.56    24.20    27.77    32.04    36.63    41.70    47.10    53.11    59.54    
 66.50    73.61    81.73    104.12   91.59    97.16    102.55   107.44   111.30   114.45   
 116.93   118.95   120.27   122.09   125.06   130.29   138.10   148.99   162.96   179.92   
 208.72   
727664.06 720724.97 707625.29 682536.22 636671.10 564068.57 475803.89 389083.77 315564.86 256423.71 
 212262.77 179650.44 154920.89 135355.19 119507.57 107537.08 95595.94 86931.40 79541.51 72558.11 
 65898.00 59374.98 53113.70 47328.46 42147.51 37674.61 33973.82 30824.99 28211.76 25927.17 
 23894.21 22175.28 20790.69 19638.02 18586.04 17609.94 16606.81 15654.81 14812.21 14117.94 
 13488.23 12949.86 12550.41 12168.04 11994.99 11492.04 10986.26 10629.86 10292.28 9976.48  
 9670.88  9343.35  9034.39  8729.21  8450.86  8193.96  7943.25  7649.77  7352.72  7034.82  
 6723.56  6428.79  6146.53  5867.19  5589.07  5310.17  5041.66  4772.84  4496.42  4221.93  
 3941.85  3653.32  3375.89  3098.20  2844.48  2601.80  2371.61  2145.94  1937.91  1748.85  
 1579.57  1429.27  1298.74  1189.10  1092.61  996.26   912.79   841.62   786.55   739.93   
 688.74   628.15   573.04   527.99   488.83   458.18   432.45   411.97   394.22   378.64   
 365.67   357.07   350.06   343.88   338.79   334.44   329.80   325.62   321.97   318.66   
 314.59   310.72   307.02   303.28   299.72   296.11   292.68   288.74   284.57   280.44   
 276.78   272.62   268.75   265.01   261.62   258.01   254.40   250.37   246.29   242.42   
 238.12   233.39   228.57   223.79   219.31   207.51   199.61   194.85   190.37   185.77   
 179.32   173.36   168.05   163.14   158.14   151.64   141.24   135.94   131.33   100.17   
 68.79    29.86    29.89    31.02    34.37    39.28    44.97    50.91    57.42    64.46    
 71.91    79.58    87.06    94.54    116.41   113.27   107.11   111.26   114.78   117.44   
 119.56   121.17   122.47   123.45   125.65   130.67   138.82   150.13   164.68   183.09   
 208.72   
727664.06 720339.27 707363.32 683119.77 636380.32 561860.78 472567.72 387096.83 314107.65 263287.21 
 212672.36 181179.63 157117.66 137378.34 121223.74 108253.85 97654.17 89190.08 81741.02 75147.54 
 68856.64 62647.31 56692.19 51259.47 46346.92 42102.67 38380.21 35123.43 32255.88 29646.18 
 27189.77 25212.67 23240.80 21761.03 20468.37 19282.09 18100.41 17006.55 16008.11 15138.95 
 14425.29 13979.77 13603.32 13096.60 12603.51 12150.79 11697.26 11242.18 10791.19 10348.08 
 9862.77  9421.91  9055.78  8726.44  8396.60  8104.83  7856.42  7623.56  7387.02  7142.75  
 6887.51  6615.78  6301.93  5973.19  5634.45  5321.66  5014.96  4716.32  4423.84  4145.73  
 3865.50  3575.21  3313.07  3065.82  2828.07  2590.32  2352.83  2139.50  1941.77  1757.62  
 1587.23  1437.93  1308.47  1193.96  1096.59  1007.64  925.61   856.40   802.47   755.59   
 703.60   640.71   585.34   535.97   496.03   464.34   438.85   417.79   399.71   383.51   
 370.98   362.34   355.70   350.53   346.19   342.49   338.83   335.31   332.18   329.06   
 326.01   323.23   320.26   317.18   314.17   311.22   308.34   305.59   302.07   298.42   
 295.21   292.07   288.77   285.54   281.84   277.83   273.87   269.87   265.95   261.59   
 256.94   252.12   247.24   241.55   235.86   230.08   216.62   209.89   205.32   200.45   
 195.55   190.37   185.17   179.94   174.75   169.15   163.78   158.99   154.44   148.28   
 136.20   53.51    32.88    35.24    37.71    41.61    47.55    53.75    60.38    67.58    
 75.46    83.02    90.43    97.73    107.14   138.32   109.12   112.77   115.78   118.15   
 119.91   121.62   122.79   124.02   126.66   131.20   138.99   150.30   165.66   184.71   
 208.72   
727664.06 718975.55 703661.76 675231.05 623066.41 545628.52 453965.94 369695.91 301674.15 248595.63 
 207591.48 176969.28 153182.19 134492.93 118901.90 106854.73 94834.39 85949.95 78177.83 70990.57 
 64177.26 57727.98 51519.79 45995.70 41147.68 36983.55 33467.67 30544.20 28116.03 25930.37 
 23885.68 22226.62 20864.40 19659.41 18610.41 17582.56 16570.74 15670.15 14871.82 14175.02 
 13554.47 13017.83 12577.08 12157.03 11766.86 11376.95 10987.04 10639.29 10302.74 9991.62  
 9681.94  9360.59  9071.25  8761.33  8481.34  8216.10  7947.36  7644.42  7323.50  7005.26  
 6684.62  6389.72  6102.63  5824.46  5549.58  5274.33  5004.30  4739.14  4466.38  4187.13  
 3913.45  3618.90  3345.06  3061.39  2806.93  2559.19  2328.37  2104.54  1900.46  1710.62  
 1541.41  1396.90  1268.67  1168.04  1067.61  967.18   886.04   818.52   766.10   719.31   
 667.11   607.34   554.17   509.89   473.52   443.96   419.21   398.91   381.21   365.96   
 353.58   344.95   338.43   333.32   328.43   323.93   320.09   316.25   312.71   309.27   
 305.56   302.28   299.18   295.69   292.55   289.53   286.61   282.83   278.51   274.32   
 270.26   266.20   262.27   258.13   253.85   249.49   245.43   241.15   237.15   232.87   
 227.69   222.54   217.08   212.32   206.22   196.61   192.29   188.01   183.47   178.41   
 172.67   167.52   161.85   156.22   149.94   139.11   131.45   125.34   119.26   99.04    
 30.92    28.73    30.56    33.54    38.27    43.98    50.25    56.72    63.56    70.72    
 77.95    85.40    92.62    101.06   129.17   107.61   111.45   114.54   116.93   119.01   
 120.85   122.61   124.06   125.65   128.25   133.70   142.72   155.67   171.77   191.62   
 208.72   
727664.06 719583.74 705698.32 679665.43 631252.68 556506.03 469014.65 385107.23 315399.10 265058.35 
 214900.78 181784.88 155732.64 134702.02 117491.84 103977.59 92695.21 83353.71 75149.56 67735.85 
 60637.07 54123.34 48211.03 42947.14 38285.75 34363.03 30971.50 27978.16 25507.64 23043.00 
 21043.81 19343.95 17968.33 16930.80 16063.39 15290.11 14602.63 13942.15 13392.56 12922.27 
 12507.11 12138.77 11782.67 11462.58 11166.40 10888.76 10617.92 10343.76 10060.53 9756.63  
 9469.38  9198.74  8909.14  8610.08  8326.74  8048.36  7783.00  7533.38  7290.53  7042.53  
 6800.97  6560.33  6295.77  6011.47  5719.83  5416.02  5101.71  4781.46  4469.33  4165.90  
 3885.71  3601.69  3333.38  3069.79  2831.87  2593.95  2356.22  2137.26  1930.42  1747.86  
 1575.94  1415.37  1272.39  1152.41  1051.28  961.80   879.57   809.23   754.54   708.15   
 660.25   604.95   553.70   507.85   470.43   440.08   415.69   395.09   376.90   361.95   
 350.60   340.78   332.58   325.55   319.34   313.27   307.64   302.53   297.55   293.24   
 289.00   284.58   280.30   276.32   272.21   267.62   263.56   259.49   255.03   250.70   
 246.17   241.29   236.42   231.56   227.19   222.98   218.69   214.06   209.49   205.17   
 200.88   196.43   191.58   186.92   181.81   176.36   169.44   162.36   156.07   148.91   
 142.12   134.39   122.50   114.08   106.20   96.94    73.99    23.53    19.29    20.40    
 21.69    24.21    28.61    33.53    38.86    44.65    50.79    57.12    63.94    71.03    
 78.10    85.90    104.80   95.51    99.63    103.95   108.04   111.66   114.79   117.78   
 120.09   121.87   124.09   126.71   130.26   135.49   143.40   154.91   170.44   189.95   
 208.72   
727664.06 719831.96 705550.65 679664.74 633725.21 563076.54 476948.03 392020.71 320272.34 261776.56 
 216095.32 180637.26 153229.41 131742.51 117812.99 103942.58 90072.19 81331.59 73877.65 66753.60 
 60212.97 54130.96 48391.07 43055.93 38615.53 34683.94 31257.97 28329.66 25603.63 23006.72 
 20629.63 18556.72 16796.74 15385.55 14331.44 13554.88 12939.80 12457.36 12052.69 11720.03 
 11388.08 11106.56 10854.14 10641.08 10432.00 10201.58 9964.53  9750.82  9531.65  9305.98  
 9061.14  8800.60  8559.64  8325.72  8089.05  7832.99  7563.87  7300.28  7027.05  6742.45  
 6457.35  6189.13  5923.12  5668.01  5408.98  5147.90  4889.61  4632.16  4359.80  4086.50  
 3814.40  3568.15  3323.57  3066.65  2823.71  2601.06  2376.17  2156.10  1957.44  1782.36  
 1620.39  1472.64  1331.87  1208.84  1109.51  1010.42  928.94   851.92   789.92   740.68   
 688.29   631.06   578.82   534.67   495.70   463.21   435.36   411.72   391.85   374.44   
 359.01   345.73   334.33   324.29   314.39   305.23   296.93   289.56   282.77   276.11   
 269.50   263.54   258.28   252.90   248.03   243.26   238.01   233.03   227.95   222.78   
 217.79   213.02   208.03   202.95   197.65   191.79   186.18   181.44   177.34   172.44   
 165.37   157.80   149.70   141.25   132.80   123.87   114.94   105.16   94.84    82.67    
 61.41    25.21    14.88    12.03    10.41    10.41    12.04    14.11    16.59    19.51    
 22.80    26.47    30.59    35.23    40.44    46.11    52.18    59.41    77.49    71.18    
 76.09    81.95    87.40    92.27    96.71    100.85   105.49   109.33   112.27   114.65   
 117.08   119.75   122.92   126.54   131.09   137.20   145.36   156.55   170.82   188.54   
 208.72   
727664.06 721778.08 710537.27 689592.20 650581.79 588677.99 508595.05 422290.68 343114.34 291828.93 
 240543.49 189475.75 158186.32 133119.34 113344.06 98692.43 87064.34 77419.55 69372.12 62200.72 
 55444.84 49245.85 43479.04 38365.05 33744.46 29917.55 27084.96 24252.37 21428.29 19288.17 
 17385.64 15732.32 14366.79 13357.38 12617.90 12073.12 11659.03 11339.55 11058.97 10800.98 
 10549.72 10321.64 10099.84 9881.22  9659.43  9441.95  9213.91  8977.84  8743.53  8522.31  
 8318.83  8118.70  7897.34  7680.86  7453.48  7241.44  7032.59  6819.96  6593.57  6361.03  
 6118.82  5875.38  5629.55  5386.14  5142.62  4902.94  4670.51  4437.62  4199.46  3958.02  
 3710.63  3472.26  3247.29  3032.41  2820.47  2608.53  2396.73  2197.70  2016.93  1844.82  
 1683.10  1532.26  1400.76  1282.38  1177.15  1078.73  987.97   911.90   845.13   788.05   
 736.57   679.25   622.03   569.43   523.80   484.13   447.49   414.45   384.75   357.02   
 334.88   315.89   298.98   283.19   269.89   258.16   247.72   237.28   226.88   218.76   
 211.23   204.18   198.69   191.53   184.17   176.63   169.43   162.04   154.65   147.88   
 140.76   133.66   126.59   119.35   111.57   103.74   94.87    84.86    73.74    60.41    
 43.94    27.49    17.95    12.90    9.22     5.54     5.56     5.88     6.25     6.71     
 7.29     7.93     8.75     9.80     11.06    12.65    14.82    17.34    20.28    23.93    
 32.31    32.82    32.88    36.69    40.63    45.39    50.49    55.76    61.23    66.68    
 72.18    77.78    83.19    88.36    93.10    97.70    102.57   106.24   109.70   113.16   
 116.48   119.98   123.83   128.44   133.93   140.86   149.56   160.14   172.82   188.11   
 208.72   
727664.06 722993.00 713018.13 694099.22 659459.02 603088.60 522942.20 437263.28 358109.80 290499.43 
 233760.29 189321.77 155361.40 129389.18 112784.77 96253.62 79722.46 69214.77 60323.60 52940.91 
 46512.37 40498.88 34967.27 30105.52 25911.29 22392.51 19629.04 17475.74 15671.35 14260.56 
 13140.29 12261.72 11711.71 11164.64 10617.56 10254.16 9938.77  9668.64  9415.73  9189.69  
 8994.99  8808.27  8612.74  8401.38  8172.10  7943.06  7719.29  7500.00  7289.24  7080.98  
 6880.56  6691.36  6507.11  6327.75  6144.00  5949.30  5758.94  5568.63  5379.12  5181.13  
 4975.79  4776.20  4584.99  4399.91  4205.20  4004.75  3808.29  3618.33  3421.14  3219.86  
 3033.50  2848.47  2671.22  2484.26  2302.45  2129.58  1960.02  1797.76  1648.08  1503.77  
 1374.46  1256.60  1149.74  1042.97  936.20   843.09   758.42   684.74   620.59   565.45   
 519.30   473.63   429.30   387.47   349.18   312.76   280.30   252.70   227.67   203.61   
 180.22   161.32   144.67   129.65   116.11   102.58   92.01    82.93    74.83    66.62    
 58.25    50.30    42.36    35.21    29.23    24.54    15.95    6.42     4.36     4.31     
 4.40     4.50     4.68     4.82     5.02     5.24     5.55     6.04     6.55     7.11     
 7.58     8.31     8.82     8.78     8.78     9.00     9.35     9.71     10.13    10.53    
 11.05    11.70    12.60    13.64    14.70    16.65    19.20    21.20    23.21    25.59    
 28.20    30.80    34.35    38.38    42.65    47.07    51.83    56.78    61.85    66.92    
 71.98    77.09    82.10    87.14    92.03    96.80    102.49   106.92   111.74   116.22   
 120.32   124.60   129.45   134.82   141.33   149.16   158.72   170.35   183.72   199.17   
 208.72   
727664.06 724610.33 718304.37 705767.81 678260.52 628411.14 561765.22 480426.12 395892.32 316138.93 
 248821.53 195911.09 156488.88 127015.98 109345.86 91800.54 74255.22 62405.54 53065.08 45319.91 
 39190.44 33831.60 29029.71 24895.92 21392.36 18369.73 15951.78 14082.21 12635.42 11707.17 
 10785.37 9863.56  9260.83  8737.67  8276.52  7880.38  7513.94  7195.88  6898.62  6637.21  
 6407.99  6199.38  5990.63  5793.78  5581.99  5366.45  5146.51  4932.07  4715.31  4517.60  
 4328.15  4156.51  3985.49  3831.13  3667.45  3506.04  3339.89  3179.25  3006.36  2826.18  
 2653.88  2483.71  2323.00  2164.41  2006.63  1858.77  1707.87  1557.71  1411.14  1271.76  
 1142.04  1012.42  882.80   763.72   650.79   550.79   457.44   371.69   296.32   232.10   
 177.79   133.12   96.39    59.75    34.58    12.38    6.55     5.53     5.14     4.91     
 4.72     4.63     4.58     4.52     4.55     4.57     4.37     4.32     4.51     4.69     
 4.82     4.97     5.17     5.41     5.62     5.85     6.09     6.30     6.54     6.82     
 7.05     7.33     7.67     7.93     8.29     8.67     9.08     9.50     9.90     10.32    
 10.72    11.14    11.56    12.02    12.50    12.99    13.47    13.95    14.46    15.07    
 15.62    16.20    16.81    17.45    18.12    18.89    19.77    20.79    21.98    23.47    
 25.27    27.53    30.47    34.12    38.61    44.23    51.16    59.97    70.60    83.07    
 97.30    113.50   131.24   150.30   170.88   192.00   213.11   235.11   257.13   276.73   
 294.39   310.61   324.90   336.51   345.58   351.88   355.16   356.26   353.80   348.77   
 341.40   332.00   321.81   310.19   297.88   284.83   271.35   257.44   242.88   228.32   
 208.72   
727664.06 726015.71 721693.95 712878.12 693777.81 654703.73 597581.79 526507.69 442606.98 356269.16 
 294784.99 233300.81 172035.91 136666.78 111054.59 89735.57 72777.02 61036.12 51809.69 44440.23 
 37704.64 32135.89 27916.07 23696.26 19485.24 16293.27 13702.03 11754.34 10219.37 8976.41  
 7892.84  7042.03  6407.16  5854.57  5373.48  4913.73  4526.04  4181.08  3892.28  3607.92  
 3371.49  3113.04  2902.92  2689.20  2475.48  2261.46  2011.73  1776.46  1528.09  1281.11  
 1041.55  826.23   644.16   524.09   434.26   361.11   297.69   247.57   197.58   162.60   
 133.87   111.10   91.54    74.95    62.42    51.25    43.03    36.80    32.15    28.17    
 24.67    22.26    19.84    16.83    11.16    10.35    9.48     8.73     7.99     7.35     
 6.58     5.90     5.10     4.21     3.42     3.15     3.20     3.30     3.41     3.52     
 3.67     3.81     3.96     4.14     4.32     4.52     4.73     4.96     5.20     5.43     
 5.65     5.88     6.14     6.41     6.69     6.97     7.27     7.56     7.89     8.22     
 8.55     8.91     9.29     9.68     10.08    10.50    10.95    11.39    11.83    12.29    
 12.77    13.27    13.77    14.27    14.80    15.33    15.91    16.56    17.16    17.83    
 18.53    19.27    20.05    20.83    21.66    22.60    23.72    24.96    26.36    28.08    
 29.96    32.20    35.13    38.78    43.15    48.63    55.24    63.36    73.02    84.79    
 98.27    114.68   131.11   150.02   170.00   190.85   212.52   233.71   255.42   275.95   
 295.13   312.33   327.49   340.48   350.75   358.15   362.62   363.94   362.27   357.75   
 350.51   341.20   330.54   317.99   304.41   290.48   276.11   261.17   244.65   228.34   
 208.72   
727664.06 727026.90 723211.53 717084.52 703077.45 674883.13 626012.66 555126.73 458445.99 356670.03 
 276176.91 207586.30 160439.98 123895.51 101066.60 78382.85 64244.80 51792.35 44025.03 36135.73 
 31073.48 25410.14 20539.16 17504.79 14891.04 12521.02 10949.30 9385.93  7822.55  6638.29  
 5690.70  4688.37  3735.02  3024.28  2452.68  1977.66  1623.80  1290.73  1031.61  773.24   
 514.88   331.14   233.24   174.79   138.66   115.10   91.68    77.08    66.57    57.81    
 50.72    44.72    40.10    36.21    33.45    30.30    27.80    25.67    24.20    22.84    
 21.53    20.41    18.60    13.92    10.22    9.59     9.01     8.49     8.06     7.69     
 7.35     7.04     6.76     6.46     6.19     5.90     5.62     5.32     5.01     4.67     
 4.37     4.05     3.78     3.61     3.56     3.60     3.72     3.86     4.02     4.18     
 4.35     4.54     4.72     4.94     5.17     5.40     5.65     5.90     6.16     6.44     
 6.72     7.02     7.31     7.62     7.93     8.25     8.57     8.91     9.26     9.61     
 9.97     10.35    10.74    11.13    11.54    11.97    12.41    12.84    13.28    13.74    
 14.21    14.68    15.17    15.66    16.15    16.64    17.17    17.74    18.33    18.96    
 19.60    20.31    21.11    21.98    22.95    24.03    25.33    26.83    28.52    30.52    
 32.77    35.42    38.58    42.34    46.84    52.31    58.77    66.67    76.18    87.38    
 100.44   115.20   131.75   150.24   170.19   191.13   212.53   235.36   258.21   279.70   
 299.62   317.95   334.03   347.48   358.20   365.73   370.09   371.09   368.61   363.24   
 355.30   345.11   333.31   320.16   305.81   290.15   274.06   257.06   239.79   221.58   
 208.72   
727664.06 728236.90 726077.05 722265.66 714302.16 695521.12 628062.65 549302.49 465691.12 376450.22 
 302636.97 228823.75 155313.01 117485.05 87669.72 68687.47 49393.14 41590.00 35704.43 31659.54 
 27848.88 24671.52 21495.42 18452.54 13096.10 10568.44 7911.66  5542.53  4494.67  3429.75  
 2364.84  1301.92  505.42   383.49   261.57   140.37   104.06   80.12    65.12    55.37    
 47.67    42.16    36.88    33.19    29.99    27.16    24.80    23.36    21.82    21.03    
 19.85    18.88    18.17    17.37    16.62    14.55    10.87    8.36     8.01     7.74     
 7.46     7.15     6.89     6.66     6.45     6.24     6.07     5.90     5.72     5.56     
 5.43     5.25     5.09     4.90     4.70     4.51     4.35     4.19     4.06     3.93     
 3.83     3.71     3.63     3.64     3.67     3.78     3.88     4.03     4.15     4.30     
 4.44     4.61     4.76     4.95     5.15     5.37     5.59     5.82     6.08     6.34     
 6.60     6.88     7.18     7.49     7.81     8.13     8.46     8.79     9.14     9.49     
 9.83     10.19    10.58    10.98    11.37    11.79    12.22    12.65    13.10    13.58    
 14.07    14.58    15.11    15.63    16.17    16.74    17.35    17.98    18.67    19.41    
 20.20    21.06    22.05    23.11    24.25    25.55    27.05    28.71    30.51    32.63    
 35.06    37.83    40.95    44.59    48.89    53.99    59.96    67.08    75.53    85.77    
 97.70    112.70   127.72   145.59   165.18   186.42   208.83   231.49   254.80   277.41   
 299.02   318.98   336.55   351.68   363.22   371.40   375.84   376.73   374.36   368.88   
 360.80   350.90   338.98   325.74   310.91   294.99   277.48   259.24   240.22   221.60   
 208.72   
727664.06 728940.00 727930.50 724732.53 717575.89 664386.15 605441.83 541599.54 458250.13 370302.18 
 276642.10 202613.29 145286.88 115886.76 86789.62 57692.48 47290.57 39868.27 34169.03 29703.85 
 21334.88 16485.07 12812.42 9348.25  5886.28  4114.26  2358.80  1635.25  922.26   209.28   
 157.56   125.08   95.37    65.70    57.12    50.15    39.71    35.35    30.91    27.65    
 24.46    22.21    20.53    19.41    18.75    17.96    16.99    15.93    14.84    14.04    
 12.58    9.87     8.04     7.53     7.02     6.49     6.21     6.00     5.82     5.65     
 5.51     5.39     5.28     5.17     5.06     4.97     4.97     4.98     5.02     5.02     
 5.03     4.99     4.93     4.84     4.69     4.55     4.39     4.25     4.13     4.04     
 3.95     3.89     3.86     3.85     3.88     3.96     4.04     4.15     4.24     4.38     
 4.50     4.64     4.79     4.96     5.15     5.36     5.57     5.81     6.05     6.31     
 6.58     6.87     7.16     7.46     7.78     8.11     8.43     8.78     9.15     9.52     
 9.90     10.30    10.72    11.14    11.56    12.00    12.44    12.90    13.37    13.85    
 14.33    14.83    15.38    15.95    16.54    17.16    17.83    18.57    19.34    20.16    
 21.06    22.03    23.09    24.32    25.66    27.18    28.83    30.77    32.94    35.35    
 38.03    40.97    44.32    48.23    52.70    57.79    63.62    70.42    78.48    88.49    
 100.22   113.83   129.26   146.27   164.92   186.13   208.40   232.06   255.73   278.89   
 301.28   322.11   341.16   356.78   369.22   377.29   381.33   381.46   377.99   371.78   
 363.35   352.87   341.05   327.83   313.36   297.46   279.91   261.41   242.16   222.52   
 208.72   
727664.06 730507.61 730371.75 728334.00 720778.70 659225.72 602692.79 542668.02 461100.37 380986.19 
 297686.79 214387.38 131463.87 92951.32 72841.27 58613.79 47713.47 39463.72 31629.07 23794.42 
 15980.01 10818.24 8283.11  4938.90  3736.11  2533.32  1330.54  138.89   128.58   102.39   
 75.76    41.45    27.73    21.72    18.79    16.99    15.58    14.55    13.90    13.13    
 12.26    11.51    10.93    10.16    9.41     8.93     8.64     8.24     7.20     6.06     
 5.76     5.56     5.30     4.97     4.77     4.67     4.56     4.44     4.30     4.43     
 4.83     5.04     5.02     4.87     4.66     4.45     4.25     4.04     3.80     3.61     
 3.46     3.37     3.31     3.28     3.24     3.24     3.24     3.23     3.23     3.23     
 3.24     3.27     3.31     3.37     3.45     3.54     3.64     3.75     3.88     4.00     
 4.14     4.28     4.43     4.60     4.79     4.98     5.20     5.44     5.68     5.93     
 6.20     6.47     6.73     7.01     7.30     7.60     7.92     8.25     8.59     8.94     
 9.31     9.67     10.07    10.49    10.91    11.36    11.82    12.31    12.81    13.32    
 13.86    14.42    15.03    15.63    16.24    16.89    17.58    18.29    19.06    19.89    
 20.79    21.81    22.91    24.11    25.47    27.03    28.79    30.84    33.07    35.60    
 38.49    41.66    45.22    49.20    53.68    58.75    64.46    71.12    78.81    88.16    
 99.19    113.22   127.29   144.69   163.73   184.68   206.76   229.28   252.79   276.03   
 298.49   320.12   340.09   358.09   372.34   382.41   388.07   389.34   386.71   380.51   
 371.63   360.67   348.92   335.58   321.49   306.38   288.94   269.69   248.96   227.86   
 208.72   
727664.06 731058.74 730976.37 729001.00 719304.93 654719.37 599371.81 535201.71 455979.69 371607.54 
 281338.85 199760.13 121714.51 95638.15 70128.94 55790.33 45161.10 36862.52 24529.15 17817.16 
 13325.77 9376.42  6273.36  3179.94  1034.14  75.77    48.54    30.94    22.94    20.00    
 18.11    16.60    15.20    13.84    12.33    10.79    9.57     8.50     7.87     7.55     
 7.32     7.23     6.96     6.55     6.32     6.21     6.14     5.97     5.92     5.64     
 5.13     4.75     4.45     4.21     4.11     3.99     3.94     3.91     3.88     3.83     
 3.79     3.76     3.74     3.71     3.71     3.71     3.71     3.70     3.70     3.69     
 3.69     3.68     3.68     3.67     3.67     3.66     3.66     3.65     3.64     3.62     
 3.62     3.62     3.63     3.68     3.73     3.80     3.90     4.01     4.12     4.24     
 4.38     4.52     4.69     4.88     5.08     5.28     5.48     5.70     5.92     6.16     
 6.37     6.61     6.86     7.13     7.42     7.73     8.05     8.38     8.73     9.10     
 9.47     9.86     10.27    10.70    11.14    11.61    12.08    12.58    13.08    13.62    
 14.18    14.78    15.40    16.04    16.69    17.35    18.04    18.80    19.60    20.45    
 21.38    22.37    23.48    24.77    26.19    27.77    29.56    31.63    33.96    36.65    
 39.59    42.89    46.65    50.85    55.53    60.78    66.68    73.44    81.37    90.71    
 101.75   114.74   129.83   146.93   166.16   186.87   208.78   232.60   256.43   279.33   
 301.28   322.35   342.06   359.71   374.24   384.35   390.02   391.12   387.94   381.11   
 371.35   359.88   347.36   333.57   319.60   304.47   288.00   269.91   250.35   229.90   
 208.72   
