IESNA:LM-63-2002
[TEST] 1
[TESTLAB] AOK
[TESTDATE] 2022-05-19
[ISSUEDATE] 2022-05-19 20:28:52
[NEARFIELD] 
[LAMPPOSITION] 0,0
[OTHER] EVERFINE GO-2000A_V1 SYSTEM
[MANUFAC] AOK
[LUMCAT] A
[LUMINAIRE] AOK-800WiSF-HV-S5-00-5070-30D-P
[LAMPCAT] B
[LAMP] 5050
[BALLAST] E
[BALLASTCAT] F
[OTHER] 
[OTHER] Gamma(deg)    Fz(lm)      Ft(lm)     %Lum    %Lamp
[OTHER]   0- 10     23367.12    23367.12    20.25    20.25
[OTHER]  10- 20     37680.30    61047.42    52.91    52.91
[OTHER]  20- 30     22277.46    83324.88    72.22    72.22
[OTHER]  30- 40     13896.42    97221.30    84.26    84.26
[OTHER]  40- 50      8368.35   105589.65    91.51    91.51
[OTHER]  50- 60      4598.85   110188.50    95.50    95.50
[OTHER]  60- 70      2543.19   112731.69    97.70    97.70
[OTHER]  70- 80      1246.15   113977.84    98.78    98.78
[OTHER]  80- 90       522.22   114500.06    99.24    99.24
[OTHER]  90-100       250.53   114750.59    99.45    99.45
[OTHER] 100-110       161.91   114912.50    99.59    99.59
[OTHER] 110-120       121.34   115033.84    99.70    99.70
[OTHER] 120-130        91.64   115125.48    99.78    99.78
[OTHER] 130-140        67.46   115192.94    99.84    99.84
[OTHER] 140-150        55.01   115247.95    99.89    99.89
[OTHER] 150-160        57.41   115305.36    99.94    99.94
[OTHER] 160-170        53.62   115358.98    99.98    99.98
[OTHER] 170-180        21.30   115380.28   100.00   100.00
[OTHER] 
TILT=NONE
1 1.1538e+005 1 181 25 1 2 0.150 0.200 0.000
1.000 1 797.56
0.0    1.0    2.0    3.0    4.0    5.0    6.0    7.0    8.0    9.0    
 10.0   11.0   12.0   13.0   14.0   15.0   16.0   17.0   18.0   19.0   
 20.0   21.0   22.0   23.0   24.0   25.0   26.0   27.0   28.0   29.0   
 30.0   31.0   32.0   33.0   34.0   35.0   36.0   37.0   38.0   39.0   
 40.0   41.0   42.0   43.0   44.0   45.0   46.0   47.0   48.0   49.0   
 50.0   51.0   52.0   53.0   54.0   55.0   56.0   57.0   58.0   59.0   
 60.0   61.0   62.0   63.0   64.0   65.0   66.0   67.0   68.0   69.0   
 70.0   71.0   72.0   73.0   74.0   75.0   76.0   77.0   78.0   79.0   
 80.0   81.0   82.0   83.0   84.0   85.0   86.0   87.0   88.0   89.0   
 90.0   91.0   92.0   93.0   94.0   95.0   96.0   97.0   98.0   99.0   
 100.0  101.0  102.0  103.0  104.0  105.0  106.0  107.0  108.0  109.0  
 110.0  111.0  112.0  113.0  114.0  115.0  116.0  117.0  118.0  119.0  
 120.0  121.0  122.0  123.0  124.0  125.0  126.0  127.0  128.0  129.0  
 130.0  131.0  132.0  133.0  134.0  135.0  136.0  137.0  138.0  139.0  
 140.0  141.0  142.0  143.0  144.0  145.0  146.0  147.0  148.0  149.0  
 150.0  151.0  152.0  153.0  154.0  155.0  156.0  157.0  158.0  159.0  
 160.0  161.0  162.0  163.0  164.0  165.0  166.0  167.0  168.0  169.0  
 170.0  171.0  172.0  173.0  174.0  175.0  176.0  177.0  178.0  179.0  
 180.0  
0.0    15.0   30.0   45.0   60.0   75.0   90.0   105.0  120.0  135.0  
 150.0  165.0  180.0  195.0  210.0  225.0  240.0  255.0  270.0  285.0  
 300.0  315.0  330.0  345.0  360.0  
267828.25 264061.42 260500.25 258959.32 258627.07 249819.86 230714.67 214205.46 197453.55 184571.01 
 160825.06 144226.62 124587.09 111009.82 97499.16 90886.02 83948.30 76423.48 61538.72 47406.94 
 36353.54 23915.07 15445.98 10298.46 8224.08  6183.04  4142.01  2100.98  59.95    25.99    
 22.63    20.22    18.21    16.91    15.23    13.54    12.17    11.06    10.04    9.40     
 8.86     8.51     8.31     7.92     7.45     7.12     6.78     6.50     6.19     5.90     
 5.81     5.68     5.49     5.25     5.16     5.06     4.91     4.86     4.78     4.74     
 4.70     4.69     4.65     4.62     4.62     4.62     4.62     4.62     4.61     4.60     
 4.57     4.54     4.50     4.46     4.40     4.34     4.27     4.20     4.14     4.10     
 4.06     4.05     4.03     4.01     4.00     3.98     3.98     4.04     4.11     4.24     
 4.37     4.51     4.68     4.85     5.03     5.23     5.45     5.68     5.94     6.25     
 6.58     6.94     7.31     7.69     8.12     8.59     9.07     9.56     10.05    10.63    
 11.27    11.94    12.67    13.45    14.31    15.24    16.21    17.23    18.36    19.61    
 20.91    22.28    23.74    25.35    27.06    28.88    30.86    33.06    35.41    37.95    
 40.61    43.40    46.45    49.77    53.22    56.90    60.84    65.13    69.73    74.66    
 79.94    85.64    91.92    98.82    106.25   114.27   122.80   131.80   141.28   151.30   
 161.78   172.17   182.69   193.50   204.06   214.51   224.71   235.06   245.41   254.11   
 262.36   270.08   277.56   284.46   290.62   295.69   299.46   301.79   302.89   302.56   
 300.31   296.66   292.61   287.79   282.56   275.82   267.81   259.06   249.17   238.28   
 225.65   
267828.25 263810.84 260272.00 257305.41 256403.83 244186.23 231968.62 219729.20 205255.15 182453.08 
 169340.20 150862.20 131767.77 110307.96 95429.57 87844.55 80084.85 72611.29 64900.43 49637.45 
 38802.37 29377.09 19972.84 13164.49 9372.56  5057.24  778.56   493.73   352.07   211.22   
 151.19   102.45   93.41    105.59   65.23    37.12    26.96    21.98    19.25    17.58    
 16.17    15.34    14.48    13.50    12.57    11.72    11.09    10.38    9.39     8.64     
 8.06     7.66     7.41     7.13     6.90     6.62     6.52     6.42     6.27     6.09     
 5.92     5.78     5.62     5.50     5.40     5.30     5.19     5.08     4.94     4.81     
 4.67     4.55     4.43     4.33     4.24     4.13     4.05     3.95     3.87     3.80     
 3.79     3.77     3.76     3.74     3.73     3.77     3.83     3.89     3.98     4.09     
 4.23     4.36     4.51     4.66     4.85     5.06     5.29     5.53     5.80     6.11     
 6.43     6.77     7.14     7.53     7.94     8.39     8.86     9.37     9.90     10.46    
 11.06    11.71    12.44    13.22    14.02    14.92    15.92    16.99    18.06    19.24    
 20.51    21.92    23.44    25.05    26.74    28.62    30.62    32.80    35.12    37.59    
 40.19    42.99    46.01    49.17    52.59    56.22    60.21    64.47    68.90    73.75    
 79.20    85.04    91.28    98.13    105.62   113.67   122.84   132.02   141.58   151.83   
 162.17   173.02   183.53   194.47   205.26   215.85   226.31   236.17   245.63   254.57   
 262.99   270.93   278.36   285.72   291.54   296.77   300.53   302.60   303.16   302.63   
 300.58   297.49   293.96   289.09   283.87   277.39   269.74   261.11   251.46   240.76   
 225.65   
267828.25 263932.13 260354.24 256622.58 254304.37 251575.73 246011.65 221699.34 206415.01 192106.81 
 171409.87 158923.74 136830.67 120875.92 101463.60 82013.66 73163.07 65736.83 57903.99 50889.24 
 44155.15 34701.99 26778.48 20627.20 14974.53 12550.79 9008.87  5454.86  1609.54  1046.89  
 525.48   322.13   211.80   174.32   141.02   112.46   83.96    73.04    57.75    47.05    
 41.09    35.66    31.40    28.11    25.36    23.79    21.89    20.34    18.65    17.23    
 15.10    13.20    12.45    11.54    10.41    9.28     8.90     8.89     8.87     8.60     
 8.25     7.83     7.48     7.23     7.02     6.81     6.63     6.46     6.27     6.10     
 5.89     5.64     5.43     5.22     5.00     4.78     4.56     4.37     4.18     4.01     
 3.87     3.74     3.67     3.66     3.67     3.74     3.83     3.93     4.05     4.17     
 4.31     4.47     4.64     4.83     5.05     5.28     5.51     5.77     6.06     6.38     
 6.70     7.05     7.42     7.82     8.25     8.70     9.17     9.66     10.21    10.80    
 11.44    12.12    12.86    13.64    14.50    15.43    16.39    17.45    18.61    19.86    
 21.20    22.64    24.19    25.85    27.59    29.44    31.45    33.62    35.88    38.26    
 40.82    43.52    46.51    49.68    53.03    56.56    60.41    64.64    69.22    74.15    
 79.41    85.12    91.39    98.43    106.04   114.08   122.48   131.41   141.14   151.23   
 161.53   172.06   182.89   193.71   204.59   215.22   225.49   236.17   246.85   255.75   
 264.85   273.34   281.34   288.28   294.32   299.05   302.62   304.76   306.19   305.74   
 303.89   301.26   298.14   294.22   288.95   282.17   274.13   265.13   255.65   244.45   
 225.65   
267828.25 264271.11 260945.83 257214.34 251907.53 245762.52 238006.57 230250.63 222379.46 199216.41 
 184370.63 167606.92 150715.59 132217.64 117704.16 98935.69 85496.93 72937.03 57423.36 47515.69 
 41257.97 36250.24 32116.19 28864.04 25148.29 21432.54 17720.20 14386.66 11754.94 8786.88  
 7264.32  5143.10  3697.55  2252.00  816.09   533.00   367.08   279.24   191.87   153.49   
 123.39   100.39   83.67    71.01    60.84    52.49    45.30    40.27    36.24    32.19    
 29.22    27.04    25.24    23.33    20.39    17.03    13.28    12.62    12.11    11.73    
 11.16    10.61    10.12    9.67     9.28     8.91     8.51     8.18     7.89     7.57     
 7.27     6.98     6.68     6.39     6.06     5.72     5.37     4.97     4.61     4.27     
 3.97     3.71     3.52     3.47     3.50     3.59     3.70     3.82     3.95     4.10     
 4.26     4.43     4.61     4.82     5.05     5.27     5.51     5.78     6.07     6.40     
 6.73     7.08     7.45     7.85     8.30     8.78     9.28     9.79     10.35    10.93    
 11.58    12.29    13.04    13.81    14.66    15.62    16.65    17.75    18.88    20.07    
 21.39    22.83    24.37    25.96    27.62    29.42    31.38    33.44    35.61    37.91    
 40.39    43.00    45.82    48.80    51.98    55.43    59.18    63.26    67.57    72.29    
 77.63    83.37    89.55    96.41    103.76   111.80   120.94   130.08   139.49   149.84   
 160.03   170.85   181.64   192.59   203.60   214.47   225.42   235.90   246.25   256.16   
 265.30   273.79   281.29   288.13   293.82   298.72   302.71   304.99   306.10   306.27   
 305.44   303.49   300.59   296.48   291.21   284.42   276.04   266.92   257.08   246.02   
 225.65   
267828.25 264870.30 261750.40 257338.50 250488.12 242578.03 235494.37 227913.93 219975.87 210237.29 
 199071.17 185700.84 165115.23 144996.53 129497.25 114485.79 99478.89 84472.00 71632.19 62548.55 
 51657.20 44462.90 38842.46 33860.43 30123.42 25192.91 22539.23 20474.06 18518.25 16739.24 
 15184.76 13664.22 12097.23 10435.02 8771.71  7244.74  5660.68  4540.21  3603.48  2924.52  
 2240.95  1607.89  1108.73  802.69   498.93   342.12   254.15   201.96   160.23   129.99   
 111.17   92.47    82.60    70.83    60.55    53.30    47.62    42.15    36.84    33.27    
 30.13    26.91    23.86    18.94    15.72    14.36    13.62    12.87    12.00    11.27    
 10.66    10.02    9.49     9.01     8.45     7.95     7.47     6.92     6.29     5.64     
 5.02     4.47     3.99     3.79     3.78     3.88     4.01     4.14     4.29     4.44     
 4.61     4.80     5.00     5.21     5.43     5.68     5.95     6.24     6.55     6.86     
 7.21     7.56     7.96     8.38     8.82     9.30     9.79     10.31    10.91    11.52    
 12.18    12.91    13.68    14.51    15.40    16.35    17.34    18.41    19.55    20.79    
 22.08    23.47    24.96    26.54    28.20    29.93    31.83    33.89    36.06    38.33    
 40.73    43.27    45.94    48.89    52.10    55.54    59.28    63.35    67.83    72.80    
 78.20    84.20    90.79    97.92    105.58   114.03   122.98   132.40   142.08   152.38   
 163.28   174.21   185.13   195.83   206.42   217.40   228.00   238.78   249.56   259.10   
 267.81   275.79   283.15   289.45   295.15   300.45   304.09   306.82   308.17   308.48   
 308.36   306.01   302.36   297.73   292.14   285.60   278.03   269.55   260.17   249.92   
 225.65   
267828.25 265891.03 263355.23 259421.28 252156.81 243955.75 235861.49 227755.74 218490.64 207240.72 
 195453.73 182994.33 168633.55 154484.83 139130.58 125243.77 111267.97 98622.73 86746.91 76898.57 
 68009.59 60729.80 54201.55 47805.72 43215.34 39555.50 36418.74 32834.21 29801.24 27293.32 
 24996.66 22700.00 20407.91 18696.01 17055.94 15476.45 13941.67 12670.49 11475.61 10314.01 
 9280.39  8346.06  7444.06  6643.73  5868.85  5250.81  4576.15  3997.66  3457.01  2983.55  
 2510.08  2037.23  1626.62  1265.90  983.23   747.58   585.64   458.58   374.92   309.08   
 253.46   197.99   157.37   127.80   106.42   88.77    73.79    60.97    51.33    43.89    
 37.57    32.63    28.39    23.79    18.02    16.47    15.08    13.41    11.99    10.77    
 9.39     7.68     5.63     3.95     3.46     3.53     3.62     3.73     3.86     4.00     
 4.15     4.31     4.49     4.69     4.92     5.16     5.41     5.67     5.97     6.26     
 6.57     6.89     7.25     7.63     8.04     8.49     8.98     9.49     10.06    10.66    
 11.30    11.99    12.73    13.52    14.35    15.25    16.23    17.23    18.27    19.40    
 20.61    21.93    23.39    24.89    26.44    28.14    30.00    32.00    34.10    36.36    
 38.76    41.36    44.11    47.03    50.18    53.67    57.43    61.49    65.75    70.54    
 75.98    81.94    88.31    95.37    102.99   111.40   120.92   130.45   140.26   150.71   
 161.17   172.22   183.10   194.28   205.30   216.23   227.15   237.55   247.78   257.54   
 266.70   275.38   283.37   290.81   297.55   303.11   307.45   310.71   312.98   314.00   
 313.69   311.91   308.94   304.97   299.89   293.90   286.84   279.03   270.42   261.07   
 225.65   
267828.25 267300.12 266238.00 263628.56 257776.92 249784.79 242039.27 234278.24 225286.05 213956.59 
 201484.55 189133.97 174471.86 159758.75 144411.61 129168.45 115642.09 102388.85 90691.51 80377.67 
 71613.59 64774.93 59289.44 54770.02 50356.61 46537.23 43282.79 40154.30 37269.03 34491.63 
 32090.37 29784.79 27756.11 25985.02 24213.93 22445.73 20931.54 19507.02 18147.52 16844.02 
 15712.21 14614.66 13471.85 12488.04 11494.35 10593.29 9730.86  8902.98  8141.12  7451.18  
 6854.63  6267.31  5774.68  5300.51  4895.40  4514.43  4169.57  3849.13  3552.30  3279.64  
 3009.00  2772.58  2536.16  2300.08  2090.20  1898.22  1721.05  1551.35  1394.83  1245.63  
 1112.21  982.43   864.88   755.28   655.72   562.96   475.77   397.24   330.35   277.82   
 225.29   172.94   135.97   105.85   73.77    35.83    8.66     4.76     3.58     3.11     
 2.81     2.56     2.48     2.45     2.38     1.62     1.54     1.64     1.67     1.67     
 1.66     1.70     1.74     1.81     1.90     1.89     1.93     2.03     2.14     2.18     
 2.31     2.48     2.51     2.66     2.82     3.02     3.24     3.39     3.56     3.74     
 3.94     4.17     4.42     4.71     5.04     5.41     5.79     6.24     6.74     7.26     
 7.82     8.45     9.15     9.86     10.64    11.51    12.46    13.56    14.70    15.95    
 17.36    18.90    20.67    22.55    24.65    26.97    29.49    32.14    35.00    38.10    
 41.32    44.76    48.42    52.36    56.53    60.97    65.69    70.71    76.03    81.46    
 87.10    92.89    98.89    105.23   111.52   118.16   125.55   132.95   140.75   148.64   
 157.10   165.91   174.82   184.46   194.37   204.53   214.85   225.14   235.26   244.95   
 225.65   
267828.25 268233.36 267957.55 266081.42 261161.82 253925.39 246771.83 238982.45 229952.83 219796.70 
 207718.55 194388.43 180210.81 165627.62 149884.98 135090.30 121297.89 109197.96 97114.75 86786.92 
 78429.23 71629.63 66185.28 61385.68 57224.67 53383.55 49780.02 46657.11 43684.33 40899.91 
 38252.55 35992.39 33727.83 31526.90 29641.05 27833.54 26225.83 24675.49 23229.16 21847.27 
 20521.67 19311.97 18043.69 16870.36 15785.46 14717.25 13720.86 12733.04 11789.10 11020.16 
 10252.55 9567.48  8960.23  8388.81  7884.67  7411.41  6952.54  6546.67  6182.03  5820.95  
 5461.51  5118.77  4803.04  4508.94  4227.15  3959.18  3695.78  3452.99  3212.01  2986.37  
 2781.06  2590.85  2402.08  2218.85  2050.19  1899.01  1758.07  1618.44  1486.09  1368.73  
 1258.77  1167.43  1076.24  985.06   901.58   826.73   757.22   695.49   641.51   594.30   
 546.19   500.63   458.45   419.63   384.29   350.97   321.05   295.72   273.29   246.95   
 225.95   207.13   189.72   173.98   159.03   143.60   129.39   116.67   103.97   92.82    
 83.15    74.52    65.85    57.37    48.45    39.97    33.50    25.98    10.74    4.43     
 3.85     3.84     3.94     4.13     4.34     4.64     4.97     5.31     5.75     6.42     
 7.23     8.13     9.43     10.31    9.97     10.10    10.66    11.34    12.13    13.21    
 14.28    15.36    16.96    19.02    20.71    22.39    24.24    26.34    28.77    31.46    
 34.15    35.72    38.46    41.98    45.68    49.47    53.50    57.86    62.43    67.19    
 72.30    77.70    83.30    89.28    95.40    101.92   108.57   115.69   123.29   132.33   
 140.18   148.64   158.20   168.04   178.27   189.17   200.40   211.50   222.62   234.01   
 225.65   
267828.25 269310.56 270342.35 270198.65 268071.36 262869.17 256311.97 249336.23 240684.98 232003.42 
 220433.01 207529.69 193021.02 177076.16 160942.23 145955.52 131624.93 117736.72 105292.72 94747.05 
 86319.54 79403.43 73689.02 68842.17 64478.15 60309.63 56559.02 52900.59 49644.23 46808.40 
 43976.29 41535.18 39199.08 37020.23 35047.78 33057.55 31250.43 29480.13 27802.81 26264.72 
 24753.05 23242.72 21865.57 20489.72 19236.65 17974.21 16776.18 15683.00 14672.87 13640.56 
 12705.56 11831.83 11032.72 10252.19 9508.28  8885.96  8328.61  7818.13  7357.66  6939.29  
 6540.82  6157.78  5785.88  5436.85  5115.41  4811.75  4518.64  4232.03  3951.51  3674.73  
 3407.73  3152.29  2920.39  2705.15  2490.18  2296.97  2116.10  1945.50  1785.64  1640.68  
 1509.16  1393.25  1285.76  1189.54  1098.03  1016.24  939.26   871.90   815.94   765.74   
 711.33   660.92   614.72   572.89   534.90   501.66   471.32   444.53   417.52   396.08   
 377.86   361.48   347.03   333.63   321.49   310.33   300.22   291.41   283.48   275.54   
 268.97   263.47   256.11   249.03   240.35   231.67   223.18   214.68   206.38   196.81   
 187.57   177.78   167.89   158.21   148.27   137.55   127.36   115.66   102.70   88.12    
 68.09    40.71    26.53    21.61    19.87    15.40    7.52     7.21     7.79     8.48     
 9.29     10.21    11.30    12.49    13.84    15.39    17.15    19.31    21.80    24.61    
 28.08    40.32    39.28    33.65    36.69    39.97    43.44    47.13    51.12    55.25    
 59.64    64.31    69.21    74.49    79.95    85.81    92.07    98.93    106.68   113.83   
 122.22   132.26   142.13   152.79   163.31   173.89   185.78   197.54   209.77   222.14   
 225.65   
267828.25 270316.15 272606.23 273938.63 273749.32 271124.53 265572.54 258242.12 249582.27 239915.50 
 228846.76 215775.41 200974.85 185164.30 169106.66 153087.00 138263.82 124283.75 114051.85 103856.12 
 93660.39 87060.84 81575.24 76544.60 71907.69 67679.98 63825.73 60159.54 56687.35 53296.54 
 50109.19 47333.20 44688.23 42020.55 39559.51 37382.75 35240.15 33093.83 31116.12 29134.32 
 27275.61 25366.45 23528.35 21734.65 20179.95 18762.60 17453.84 16249.44 15129.48 14145.54 
 13252.69 12362.03 11618.11 10875.59 10133.07 9482.34  8906.21  8378.72  7899.64  7431.03  
 6940.31  6486.98  6087.07  5712.26  5336.07  4980.42  4641.89  4307.14  3984.52  3691.85  
 3421.22  3173.77  2939.24  2705.38  2493.67  2287.42  2098.15  1917.09  1751.03  1599.61  
 1466.06  1348.00  1234.89  1139.72  1044.69  964.33   889.05   819.64   770.68   723.07   
 669.26   621.49   580.14   546.19   516.04   490.29   467.32   448.19   432.00   417.80   
 404.83   393.51   383.87   374.76   365.52   357.45   349.37   342.23   334.96   327.65   
 320.60   314.07   308.19   301.72   295.41   290.23   284.81   279.13   274.00   268.84   
 264.15   260.37   255.74   250.53   244.41   238.67   232.94   226.98   220.26   213.35   
 203.61   194.45   185.13   176.32   166.61   157.11   147.21   135.62   122.33   109.02   
 91.77    46.69    20.53    16.14    15.27    13.77    14.11    15.90    17.87    20.09    
 22.49    25.02    27.69    30.53    33.54    36.82    40.40    44.45    54.35    65.83    
 54.73    59.02    63.80    69.01    74.51    80.13    86.14    92.43    99.04    105.98   
 113.53   121.74   130.86   140.71   151.58   162.92   174.70   187.07   199.67   212.60   
 225.65   
267828.25 271201.95 274648.57 277521.70 278857.10 277700.99 273943.33 268296.22 260633.61 251527.98 
 239467.31 227376.47 212543.63 196673.04 180271.93 164636.68 149714.20 135709.94 123210.43 113129.89 
 104880.26 98125.70 92313.58 87015.07 81867.36 77071.99 72555.54 68151.72 63883.44 59999.99 
 56465.18 53156.83 50015.75 46924.14 44000.55 41194.10 38222.47 35378.04 32892.29 30561.35 
 28569.79 26779.11 25174.44 23569.76 21966.37 20483.48 19118.71 17813.12 16513.88 15378.54 
 14367.90 13400.96 12522.45 11680.03 10885.24 10204.93 9578.30  9003.82  8451.23  7914.37  
 7414.98  6923.30  6437.72  5990.89  5589.93  5209.89  4855.43  4520.91  4207.41  3902.84  
 3606.07  3322.30  3050.35  2824.62  2598.90  2373.34  2164.43  1969.63  1790.46  1629.54  
 1481.03  1343.80  1222.14  1118.36  1026.42  943.13   863.16   796.15   749.45   705.15   
 654.09   607.40   567.53   533.58   506.01   483.19   463.54   445.55   430.98   418.75   
 409.39   401.43   393.95   386.91   380.65   374.78   368.64   362.39   356.73   350.59   
 345.28   339.11   333.98   327.94   322.11   316.02   309.90   304.34   298.61   293.27   
 288.24   282.72   277.47   272.08   266.78   261.14   255.84   250.76   245.89   240.05   
 234.22   229.16   223.79   218.41   212.26   206.10   197.96   189.77   181.28   172.73   
 163.56   153.59   139.41   125.10   115.48   108.16   92.34    32.94    26.13    25.94    
 24.02    22.81    25.42    28.59    31.87    35.34    39.01    42.81    46.87    51.21    
 55.79    61.16    83.70    70.85    73.02    78.53    84.09    90.05    96.42    103.37   
 110.51   118.04   126.26   135.32   145.28   156.44   168.83   181.25   194.32   207.83   
 225.65   
267828.25 271984.25 276264.61 279791.58 281327.07 280030.88 276214.35 270669.04 263878.46 255371.36 
 244905.32 232636.93 218845.33 204088.49 188490.24 173004.55 158156.04 144420.81 132479.88 122419.20 
 115397.36 108403.23 101409.11 95581.83 89974.57 84737.95 79575.68 74792.10 70370.47 66087.04 
 61896.02 57999.03 53973.97 50165.74 46617.11 43494.99 40654.02 38041.41 35536.60 33302.87 
 31356.93 29386.06 27502.08 25710.04 24006.03 22354.31 20722.87 19214.54 17842.09 16518.31 
 15285.58 14141.21 13128.40 12255.49 11516.42 10778.57 10040.71 9414.36  8784.93  8166.72  
 7619.80  7119.45  6660.22  6237.52  5829.63  5447.58  5079.42  4723.84  4375.21  4037.08  
 3721.96  3440.81  3182.76  2925.37  2687.26  2456.96  2245.61  2039.66  1853.44  1677.05  
 1523.65  1388.93  1266.83  1166.26  1065.84  965.43   883.91   819.39   775.26   730.84   
 676.25   624.38   581.80   547.53   519.38   495.32   475.64   458.90   444.44   431.98   
 422.57   413.45   406.10   399.47   392.88   386.59   380.67   374.82   369.49   364.08   
 358.37   353.08   348.02   342.48   337.54   332.66   327.64   321.30   315.14   309.25   
 303.70   298.68   293.53   288.47   283.84   279.21   274.28   269.31   264.22   258.85   
 253.92   248.25   243.62   238.17   231.68   217.17   211.42   206.36   201.08   194.24   
 187.88   181.73   175.96   170.46   164.70   153.32   146.69   141.22   132.57   79.45    
 25.99    26.18    27.69    29.87    32.69    36.55    40.57    44.78    49.34    54.04    
 59.04    63.98    69.37    81.77    106.23   80.51    85.45    91.18    97.25    103.83   
 111.04   118.84   127.04   135.68   145.35   156.44   168.36   180.92   194.26   207.99   
 225.65   
267828.25 272308.35 276900.63 280915.10 282841.09 281973.46 278830.00 273729.79 266933.44 258464.91 
 247066.74 235668.59 224237.82 209906.58 194364.62 179000.22 164288.65 150350.51 137991.76 127877.81 
 119701.48 112606.70 106436.32 100564.55 94887.45 89306.54 84182.48 79282.87 74654.70 69956.57 
 65652.93 61358.47 57173.16 53213.43 49641.66 46479.90 43580.60 40829.42 38246.63 35874.70 
 33635.18 31568.30 29628.99 27566.05 25779.22 23992.38 22207.49 20595.26 19088.70 17612.88 
 16198.26 14976.10 13882.32 12880.29 12018.78 11206.90 10499.45 9812.86  9129.27  8499.04  
 7944.96  7430.87  6947.25  6499.92  6075.63  5680.06  5302.93  4926.32  4560.85  4224.37  
 3900.70  3611.27  3339.25  3083.39  2839.90  2596.41  2353.22  2138.86  1944.55  1761.34  
 1590.57  1440.69  1307.73  1190.42  1085.27  990.34   903.60   832.83   784.43   740.84   
 687.95   639.68   596.32   559.59   530.27   507.14   486.23   467.24   449.74   434.94   
 423.19   413.83   406.17   399.89   393.66   387.82   382.19   376.79   371.60   366.29   
 361.24   356.66   351.77   346.72   342.14   337.60   332.80   328.05   323.38   318.41   
 313.89   309.22   304.82   300.24   295.48   290.64   285.93   281.23   276.94   271.97   
 266.38   260.90   254.80   249.44   240.06   230.67   221.34   216.15   211.24   206.94   
 201.75   196.25   191.13   185.90   180.45   175.23   169.71   165.00   158.92   149.30   
 94.75    31.40    31.78    32.01    33.52    37.30    42.03    46.59    51.46    56.44    
 61.57    66.98    72.43    79.47    113.51   85.91    88.60    93.48    99.08    105.46   
 112.65   120.37   128.50   137.38   146.87   157.75   169.64   182.47   196.22   210.39   
 225.65   
267828.25 272481.59 277021.66 280494.00 282021.73 281323.16 278595.66 273955.29 267442.70 258860.98 
 248642.42 236948.91 224058.19 209972.71 194613.40 178967.53 164229.28 150443.30 138125.81 127360.79 
 118780.27 111978.25 105191.92 99173.64 93327.58 87893.41 82655.96 77725.69 73146.70 68665.77 
 64280.36 60258.52 56232.16 52225.44 48510.84 45260.42 42246.69 39538.82 37013.95 34719.91 
 32585.79 30551.73 28652.65 26810.02 25019.15 23236.63 21576.50 20004.21 18574.75 17233.28 
 15982.76 14768.90 13689.39 12713.65 11845.33 11066.46 10288.37 9635.52  8995.32  8373.23  
 7810.92  7291.72  6817.35  6377.38  5964.10  5570.67  5201.79  4842.74  4485.36  4144.80  
 3821.19  3529.33  3267.25  3009.08  2761.72  2528.06  2311.31  2103.51  1905.38  1726.94  
 1561.06  1417.70  1287.32  1185.03  1082.95  980.88   898.36   828.28   777.86   734.55   
 683.51   632.27   586.80   548.91   517.34   493.29   473.45   456.57   441.10   427.79   
 417.48   409.16   402.16   395.73   389.17   383.18   377.59   372.85   368.03   362.82   
 357.22   352.65   348.22   343.36   338.97   334.76   330.68   325.49   319.72   314.50   
 308.86   303.43   297.87   292.14   286.41   281.28   276.03   270.51   265.40   259.85   
 253.51   247.09   240.06   233.88   227.20   216.04   211.68   206.86   202.09   195.33   
 189.99   184.31   177.58   171.33   164.08   152.01   144.72   137.12   128.01   80.38    
 32.44    31.03    30.73    31.59    35.31    39.72    44.33    49.26    54.45    59.81    
 65.42    71.38    77.93    98.44    96.54    90.90    95.39    100.27   105.44   111.03   
 117.46   124.92   132.98   141.44   150.79   161.71   173.52   186.25   199.68   213.75   
 225.65   
267828.25 272073.46 275914.54 278756.89 280126.53 279790.35 277941.18 274300.43 268575.35 260731.77 
 251012.50 238657.32 226272.99 211296.40 195387.43 179596.09 163812.57 148995.83 135020.05 123377.98 
 113472.45 105495.55 98648.14 92756.44 87379.13 82366.48 77338.50 72670.55 68264.73 64131.73 
 60185.94 56642.01 53108.36 49804.22 46662.45 43645.41 40554.46 37522.32 34820.18 32489.53 
 30397.22 28553.75 26797.24 25196.12 23595.00 21994.89 20486.81 19071.12 17733.31 16458.00 
 15289.08 14238.05 13271.23 12364.58 11509.38 10744.88 10047.79 9400.31  8811.73  8260.61  
 7749.78  7248.94  6752.39  6282.10  5846.14  5466.14  5105.38  4756.70  4420.69  4114.14  
 3809.73  3518.18  3238.04  2981.35  2756.16  2530.98  2305.99  2099.50  1909.60  1738.62  
 1578.89  1428.46  1289.39  1174.25  1075.98  986.18   905.71   830.22   768.43   724.87   
 679.55   628.84   582.82   542.83   509.73   483.31   460.75   441.76   424.99   411.46   
 401.04   392.39   384.90   377.90   371.80   366.12   360.49   354.82   349.18   343.44   
 338.28   332.53   327.86   323.30   318.27   312.51   307.18   301.59   295.88   290.29   
 284.41   278.66   273.24   267.79   262.94   257.83   252.84   247.55   241.72   235.89   
 230.06   224.38   218.38   212.59   206.22   199.54   190.57   182.11   174.08   165.64   
 157.83   148.85   135.92   127.74   118.83   106.82   69.33    28.17    26.25    26.03    
 25.11    27.44    31.07    35.01    39.12    43.48    48.12    53.01    58.39    64.25    
 70.91    83.17    93.50    86.01    90.62    95.71    100.81   106.55   112.67   118.75   
 124.93   131.72   138.88   147.46   156.97   167.60   178.94   191.02   203.97   217.32   
 225.65   
267828.25 271348.16 274043.91 275948.23 276786.70 276479.56 274753.40 271289.94 265694.27 257923.37 
 247349.76 234595.05 220370.72 204918.16 188867.20 172733.11 157151.21 142588.27 129132.09 116156.62 
 106699.78 97275.20 90502.80 84603.77 79354.70 74604.88 70282.50 66182.45 62327.18 58673.94 
 55249.68 52148.64 49230.72 46243.91 43530.77 41149.17 38707.58 36336.06 34171.01 31939.03 
 29866.81 27803.99 25870.44 23989.01 22233.39 20725.71 19333.79 18029.06 16811.29 15660.86 
 14631.43 13631.39 12729.48 11914.64 11148.45 10382.70 9699.38  9082.31  8530.56  8003.58  
 7494.29  7007.53  6570.78  6170.24  5770.44  5398.43  5054.47  4707.18  4354.30  4031.97  
 3744.07  3477.11  3229.28  2979.73  2748.40  2534.72  2326.36  2131.15  1953.14  1786.79  
 1632.46  1494.92  1366.26  1249.92  1155.85  1062.00  968.16   890.38   820.01   768.65   
 719.38   666.36   617.46   576.98   541.23   509.89   483.36   460.04   440.42   423.19   
 407.95   394.69   383.21   373.27   364.21   355.41   347.83   340.58   333.81   326.99   
 319.58   312.16   305.85   299.04   292.70   286.70   280.58   274.64   268.82   262.74   
 256.96   251.43   245.57   239.83   233.63   226.56   218.89   212.37   207.24   202.49   
 194.67   186.18   177.43   167.73   158.16   148.97   138.92   126.91   112.69   98.46    
 74.14    34.70    23.97    20.08    17.44    17.06    18.97    21.35    23.99    26.90    
 30.06    33.40    37.08    41.10    45.50    50.20    55.53    65.67    75.58    70.20    
 74.74    79.60    84.50    89.61    95.07    100.87   106.65   112.83   119.31   125.08   
 131.15   137.95   145.87   154.66   164.06   174.11   184.70   196.12   207.96   220.76   
 225.65   
267828.25 270267.92 271800.81 272624.60 272934.10 272678.19 270877.88 267281.72 260561.60 251763.86 
 240540.03 229316.18 218054.24 203406.61 187495.65 172028.60 156162.92 140888.94 126475.41 113796.86 
 102355.18 92531.41 84565.43 78233.09 73051.01 68410.78 64044.64 60087.06 56675.93 53295.24 
 50163.34 47273.47 44427.10 41998.38 39891.89 37611.50 35491.28 33381.77 31519.05 29735.99 
 28085.69 26449.41 24988.75 23528.09 22067.63 20626.67 19298.70 18089.81 16945.45 15804.90 
 14685.02 13670.40 12694.64 11760.23 10872.44 10102.06 9383.52  8734.28  8158.26  7684.21  
 7234.52  6803.21  6387.54  5990.20  5634.45  5309.83  4986.59  4680.51  4386.51  4110.80  
 3841.82  3573.72  3312.97  3071.78  2844.57  2628.79  2413.25  2220.16  2048.83  1886.97  
 1733.69  1589.06  1458.93  1348.68  1248.03  1149.44  1058.37  975.93   905.82   840.70   
 787.82   734.24   680.00   630.29   586.43   547.12   510.79   477.66   448.99   420.31   
 397.07   377.02   359.92   343.69   328.93   316.05   303.95   291.98   281.04   270.66   
 262.04   253.97   248.33   239.69   231.04   222.40   213.45   204.43   194.80   185.24   
 176.05   166.51   157.86   149.36   140.38   131.06   121.11   109.61   97.11    81.84    
 63.69    43.30    30.09    23.39    17.27    10.06    9.59     10.43    11.39    12.46    
 13.66    15.04    16.53    18.27    20.16    22.31    24.86    27.82    31.12    36.15    
 46.59    41.35    44.20    47.72    51.13    55.13    59.52    64.00    68.83    73.84    
 79.10    84.48    90.03    95.75    101.57   107.63   113.69   120.01   127.00   133.99   
 141.19   148.86   156.85   165.64   174.92   184.75   195.15   205.76   216.83   227.78   
 225.65   
267828.25 268939.20 269104.54 268675.30 267967.61 266400.84 263144.50 257020.32 249696.72 241697.84 
 232676.61 221691.59 209242.78 195608.40 180321.22 164942.86 149918.02 135362.51 121709.91 110445.46 
 99203.44 87961.42 79790.00 72844.83 67180.00 62452.08 58239.85 54464.23 50958.57 47627.29 
 44469.42 41680.18 39113.03 36793.93 34633.28 32739.71 30805.33 28870.61 27097.16 25487.85 
 24102.59 22649.27 21257.74 19929.26 18687.29 17508.58 16322.59 15234.26 14158.45 13176.58 
 12237.11 11446.47 10657.30 9868.13  9203.89  8606.13  8028.74  7512.53  7040.81  6608.29  
 6196.69  5825.12  5465.89  5126.56  4797.31  4497.06  4201.42  3931.56  3663.11  3403.00  
 3163.96  2952.43  2750.00  2545.89  2358.78  2181.73  2019.02  1859.60  1712.50  1578.17  
 1447.12  1330.37  1220.46  1130.68  1041.05  951.41   866.30   790.01   721.14   662.77   
 610.55   564.99   520.00   477.75   437.65   400.10   364.65   332.11   302.87   276.40   
 252.25   226.59   206.63   188.08   170.78   154.52   139.92   126.62   114.77   102.92   
 92.98    83.21    73.84    63.54    53.81    45.71    38.75    25.63    8.96     5.36     
 5.27     5.41     5.64     5.91     6.22     6.65     7.13     7.77     8.57     9.39     
 10.36    11.43    12.63    13.42    13.75    14.41    15.35    16.41    17.57    18.80    
 19.99    21.37    23.02    25.72    28.49    30.35    31.64    34.59    38.59    41.49    
 44.63    47.06    49.63    53.67    57.93    62.31    66.96    71.94    77.06    82.43    
 88.05    93.80    99.73    105.92   112.20   118.61   125.20   132.09   139.27   146.52   
 154.07   162.00   170.39   179.10   188.37   198.30   208.55   218.91   229.11   240.72   
 225.65   
267828.25 267834.01 267158.35 266316.31 264995.41 262284.90 256815.47 249604.78 242690.50 234152.23 
 225038.55 213415.86 200850.71 188036.87 172875.03 158165.35 143460.83 128518.05 115903.02 103317.10 
 90731.16 80482.36 71884.35 65349.57 59842.44 55271.83 50838.28 46968.98 43558.73 40368.38 
 37482.14 34702.73 32222.17 30003.08 28116.48 26074.76 24356.97 22563.25 21066.80 19704.15 
 18248.02 16981.04 15902.85 14759.47 13635.12 12586.44 11654.92 10724.69 9794.46  8985.73  
 8218.62  7551.53  6958.85  6353.42  5831.87  5369.66  4945.16  4546.83  4174.16  3840.02  
 3536.90  3250.59  2980.95  2729.61  2506.24  2296.89  2092.52  1902.70  1730.34  1561.81  
 1403.79  1256.35  1122.03  987.85   869.74   761.91   660.74   565.28   479.12   402.42   
 335.23   275.17   222.16   176.94   138.60   99.45    60.29    23.61    8.43     6.52     
 5.93     5.56     5.39     5.26     5.24     5.34     5.37     4.78     4.85     5.11     
 5.32     5.49     5.65     5.89     6.14     6.41     6.78     7.11     7.46     7.87     
 8.21     8.65     9.12     9.58     10.05    10.66    11.29    11.99    12.68    13.44    
 14.24    15.10    16.03    17.04    18.18    19.38    20.68    22.06    23.55    25.15    
 26.85    28.66    30.62    32.77    35.08    37.51    40.18    43.11    46.31    49.84    
 53.70    58.11    63.08    68.66    74.76    81.40    88.79    96.76    105.36   114.60   
 124.41   134.40   144.67   155.27   166.33   177.20   187.95   198.38   209.24   219.83   
 229.86   239.79   249.71   258.44   266.25   273.27   279.81   285.25   289.82   293.17   
 295.41   296.39   296.10   294.75   292.27   288.82   284.10   278.16   271.29   263.41   
 225.65   
267828.25 267021.83 265894.95 264568.56 263194.18 260916.55 255749.72 248196.49 240759.78 233308.48 
 223966.65 213324.88 201071.80 188512.07 173673.95 159093.64 143542.94 125939.51 109145.22 94554.39 
 83312.11 73193.83 64126.29 55937.05 49898.10 45258.27 41269.83 36719.45 33337.63 30280.85 
 27916.26 25272.91 22632.97 20427.48 18563.80 16725.90 14931.78 13479.29 12102.46 10751.65 
 9592.61  8541.32  7614.23  6818.67  6105.54  5445.96  4817.57  4200.61  3552.91  3031.93  
 2510.95  1990.84  1560.95  1234.53  973.51   787.22   640.29   527.37   431.13   350.56   
 297.42   244.28   191.33   157.22   129.22   106.18   87.67    71.07    58.50    49.63    
 42.47    36.50    31.87    28.03    24.54    20.01    14.85    13.57    12.38    11.18    
 10.17    9.05     8.03     6.87     5.56     4.23     3.57     3.61     3.71     3.82     
 3.95     4.09     4.24     4.41     4.59     4.78     4.99     5.21     5.46     5.72     
 5.99     6.26     6.55     6.85     7.19     7.55     7.92     8.34     8.81     9.30     
 9.80     10.37    10.97    11.60    12.27    12.99    13.79    14.65    15.53    16.50    
 17.51    18.59    19.78    21.00    22.28    23.70    25.23    26.88    28.62    30.51    
 32.54    34.64    36.94    39.36    41.90    44.64    47.65    50.84    54.17    57.89    
 62.07    66.65    71.75    77.40    83.59    90.41    97.75    105.80   114.33   124.16   
 133.99   144.20   154.50   165.07   175.82   186.47   197.33   207.63   218.10   228.09   
 237.64   246.79   255.38   263.48   270.88   277.69   283.34   288.33   292.18   295.23   
 296.89   297.05   296.16   294.18   290.93   286.49   280.60   273.51   265.49   256.62   
 225.65   
267828.25 266181.90 264454.27 262725.79 261554.26 261106.05 258599.76 252652.73 245352.67 230965.82 
 211249.77 196122.52 180213.58 162625.24 148041.41 129233.09 114504.52 99817.90 85131.27 73239.61 
 61775.09 51796.16 43740.75 35345.77 31015.20 27865.91 25062.73 22686.98 20491.58 18611.82 
 16636.80 14922.50 12842.16 10829.10 8816.86  6804.62  5400.14  4363.26  3599.89  2677.62  
 1965.20  1398.64  990.70   584.66   417.36   312.04   245.20   195.74   154.48   127.25   
 108.28   89.40    77.13    66.91    57.46    50.88    44.99    40.25    35.78    32.63    
 30.27    27.85    25.69    23.49    20.90    16.93    13.68    12.69    11.94    11.28    
 10.65    10.05    9.55     9.08     8.60     8.16     7.71     7.28     6.84     6.39     
 5.91     5.44     4.96     4.53     4.18     4.00     3.99     4.10     4.22     4.36     
 4.51     4.68     4.85     5.06     5.28     5.51     5.75     6.00     6.28     6.57     
 6.88     7.20     7.54     7.91     8.32     8.74     9.19     9.66     10.15    10.67    
 11.24    11.87    12.52    13.21    13.95    14.76    15.62    16.54    17.52    18.54    
 19.64    20.80    22.07    23.44    24.85    26.33    27.96    29.74    31.59    33.56    
 35.60    37.81    40.07    42.58    45.28    48.15    51.27    54.71    58.43    62.45    
 66.85    71.73    77.18    83.14    89.61    96.83    104.64   113.01   121.76   131.16   
 141.29   151.56   161.87   172.06   182.38   192.93   203.29   213.27   223.37   233.11   
 242.72   252.32   260.47   267.75   274.25   280.18   285.27   289.54   292.36   294.38   
 295.10   294.33   291.89   288.92   284.77   279.44   272.66   264.74   255.63   245.60   
 225.65   
267828.25 265501.01 263334.70 261388.31 261749.28 262063.28 261462.94 244670.59 227876.01 210800.78 
 196183.74 176373.23 162371.42 143157.13 126983.46 109736.45 94614.48 74396.25 65071.31 57220.79 
 49811.90 43584.87 37795.82 32990.08 27290.85 21605.97 17539.90 14634.20 10611.78 9129.81  
 6266.68  4222.99  2607.12  1001.34  637.59   425.44   335.33   245.22   155.59   118.21   
 93.67    77.85    66.05    55.91    47.14    42.40    38.56    34.97    31.85    29.99    
 28.00    26.01    24.35    23.08    21.52    19.42    17.39    15.28    12.59    11.29    
 10.94    10.50    10.03    9.58     9.20     8.84     8.49     8.20     7.92     7.63     
 7.37     7.11     6.85     6.58     6.30     6.00     5.72     5.48     5.20     4.95     
 4.69     4.45     4.23     4.04     3.91     3.91     3.96     4.06     4.18     4.32     
 4.47     4.63     4.80     4.98     5.20     5.43     5.65     5.91     6.18     6.47     
 6.77     7.09     7.44     7.81     8.22     8.63     9.09     9.58     10.09    10.62    
 11.19    11.79    12.45    13.17    13.90    14.71    15.63    16.60    17.59    18.67    
 19.85    21.13    22.52    23.96    25.47    27.10    28.87    30.75    32.74    34.84    
 37.09    39.46    42.03    44.74    47.64    50.73    54.13    57.80    61.64    65.86    
 70.60    75.70    81.18    87.30    93.92    101.11   108.83   117.00   126.37   135.75   
 145.30   155.41   165.44   175.87   186.48   196.99   207.58   217.87   228.03   237.87   
 246.98   255.64   263.47   270.78   277.16   282.61   286.94   289.95   291.87   292.95   
 292.63   291.14   288.58   284.72   279.72   273.75   266.34   258.12   248.61   238.13   
 225.65   
267828.25 264931.99 262120.48 261256.58 261565.89 261291.58 240947.64 227408.92 213759.52 194631.96 
 182027.52 159773.70 143365.16 127420.33 112800.70 98195.17 83589.65 75292.26 66924.62 59367.67 
 50107.90 36723.10 27268.73 19558.20 16006.04 12045.18 8079.43  4113.69  2839.16  1599.06  
 358.96   239.75   171.17   126.24   103.55   81.10    70.18    57.31    49.06    42.99    
 38.41    32.62    29.86    27.86    26.67    24.29    22.28    20.76    19.27    18.06    
 16.56    15.27    13.86    11.30    10.08    9.08     8.55     8.35     8.20     8.02     
 7.80     7.56     7.33     7.13     6.92     6.73     6.53     6.37     6.20     6.01     
 5.81     5.63     5.47     5.30     5.16     5.00     4.85     4.70     4.55     4.42     
 4.29     4.19     4.07     4.01     3.98     3.97     4.01     4.10     4.21     4.34     
 4.47     4.64     4.81     5.00     5.22     5.45     5.68     5.94     6.22     6.52     
 6.83     7.17     7.52     7.91     8.32     8.76     9.22     9.71     10.21    10.78    
 11.39    12.04    12.74    13.50    14.30    15.18    16.10    17.07    18.15    19.32    
 20.56    21.91    23.37    24.95    26.58    28.35    30.27    32.33    34.49    36.78    
 39.21    41.82    44.61    47.64    50.85    54.24    57.85    61.82    66.10    70.71    
 75.62    80.99    86.95    93.34    100.24   107.78   115.82   124.34   133.22   142.68   
 152.60   162.58   172.65   182.57   192.86   203.20   213.28   222.89   232.69   242.62   
 252.55   261.11   269.06   276.21   282.35   287.32   290.84   293.35   294.59   294.82   
 293.95   291.69   288.50   284.28   278.39   271.74   264.48   255.82   246.11   235.01   
 225.65   
267828.25 264310.55 261204.96 259858.89 259971.02 246332.10 232693.19 219035.31 203483.49 187194.31 
 168292.49 150627.74 133779.22 106290.90 99339.21 92967.13 86277.32 79083.90 71303.53 51989.07 
 40192.84 31332.15 22471.45 13641.72 8493.66  4460.66  462.66   280.38   222.97   165.32   
 84.61    46.98    33.91    26.32    22.24    19.89    18.12    16.79    15.62    14.68    
 13.71    12.79    12.12    11.40    10.65    10.06    9.65     9.27     8.89     8.29     
 7.41     6.93     6.88     7.09     7.10     7.01     6.84     6.62     6.30     6.01     
 5.77     5.60     5.46     5.34     5.23     5.12     5.00     4.90     4.78     4.67     
 4.58     4.49     4.42     4.35     4.32     4.24     4.17     4.10     4.04     3.97     
 3.91     3.86     3.82     3.79     3.79     3.81     3.84     3.90     3.98     4.07     
 4.20     4.35     4.50     4.68     4.89     5.08     5.31     5.54     5.80     6.09     
 6.41     6.75     7.10     7.48     7.90     8.34     8.82     9.32     9.83     10.38    
 10.96    11.60    12.30    13.04    13.81    14.68    15.64    16.66    17.72    18.83    
 20.05    21.40    22.87    24.42    26.03    27.83    29.78    31.89    34.10    36.45    
 38.99    41.71    44.64    47.68    50.99    54.53    58.36    62.48    66.82    71.49    
 76.66    82.30    88.29    94.88    102.06   109.78   117.94   127.33   136.73   146.68   
 156.63   167.15   177.58   188.23   198.98   209.45   219.74   229.52   239.16   248.19   
 256.82   265.20   272.83   280.46   286.90   291.86   296.04   298.86   300.20   300.06   
 298.21   294.98   291.27   287.02   281.64   274.65   266.52   257.15   246.80   235.53   
 225.65   
267828.25 264061.42 260500.25 258959.32 258627.07 249819.86 230714.67 214205.46 197453.55 184571.01 
 160825.06 144226.62 124587.09 111009.82 97499.16 90886.02 83948.30 76423.48 61538.72 47406.94 
 36353.54 23915.07 15445.98 10298.46 8224.08  6183.04  4142.01  2100.98  59.95    25.99    
 22.63    20.22    18.21    16.91    15.23    13.54    12.17    11.06    10.04    9.40     
 8.86     8.51     8.31     7.92     7.45     7.12     6.78     6.50     6.19     5.90     
 5.81     5.68     5.49     5.25     5.16     5.06     4.91     4.86     4.78     4.74     
 4.70     4.69     4.65     4.62     4.62     4.62     4.62     4.62     4.61     4.60     
 4.57     4.54     4.50     4.46     4.40     4.34     4.27     4.20     4.14     4.10     
 4.06     4.05     4.03     4.01     4.00     3.98     3.98     4.04     4.11     4.24     
 4.37     4.51     4.68     4.85     5.03     5.23     5.45     5.68     5.94     6.25     
 6.58     6.94     7.31     7.69     8.12     8.59     9.07     9.56     10.05    10.63    
 11.27    11.94    12.67    13.45    14.31    15.24    16.21    17.23    18.36    19.61    
 20.91    22.28    23.74    25.35    27.06    28.88    30.86    33.06    35.41    37.95    
 40.61    43.40    46.45    49.77    53.22    56.90    60.84    65.13    69.73    74.66    
 79.94    85.64    91.92    98.82    106.25   114.27   122.80   131.80   141.28   151.30   
 161.78   172.17   182.69   193.50   204.06   214.51   224.71   235.06   245.41   254.11   
 262.36   270.08   277.56   284.46   290.62   295.69   299.46   301.79   302.89   302.56   
 300.31   296.66   292.61   287.79   282.56   275.82   267.81   259.06   249.17   238.28   
 225.65   
