IESNA:LM-63-2002
[TEST] 1
[TESTLAB] AOK
[TESTDATE] 2024-11-27
[ISSUEDATE] 2024-11-27 16:21:54
[NEARFIELD] 
[LAMPPOSITION] 0,0
[OTHER] EVERFINE GO-2000A_V1 SYSTEM
[MANUFAC] AOK
[LUMCAT] A
[LUMINAIRE] AoK-250WPLB-NV-L2-5070-T401-P
[LAMPCAT] B
[LAMP] 2835
[BALLAST] E
[BALLASTCAT] F
[OTHER] 
[OTHER] Gamma(deg)    Fz(lm)      Ft(lm)     %Lum    %Lamp
[OTHER]   0- 10       755.71      755.71     1.95     1.95
[OTHER]  10- 20      2242.42     2998.13     7.72     7.72
[OTHER]  20- 30      3650.22     6648.35    17.12    17.12
[OTHER]  30- 40      4990.74    11639.09    29.97    29.97
[OTHER]  40- 50      6229.70    17868.79    46.02    46.02
[OTHER]  50- 60      7215.42    25084.21    64.60    64.60
[OTHER]  60- 70      7776.96    32861.17    84.63    84.63
[OTHER]  70- 80      5266.51    38127.68    98.19    98.19
[OTHER]  80- 90       702.60    38830.28   100.00   100.00
[OTHER]  90-100         0.00    38830.28   100.00   100.00
[OTHER] 100-110         0.00    38830.28   100.00   100.00
[OTHER] 110-120         0.00    38830.28   100.00   100.00
[OTHER] 120-130         0.00    38830.28   100.00   100.00
[OTHER] 130-140         0.00    38830.28   100.00   100.00
[OTHER] 140-150         0.00    38830.28   100.00   100.00
[OTHER] 150-160         0.00    38830.28   100.00   100.00
[OTHER] 160-170         0.00    38830.28   100.00   100.00
[OTHER] 170-180         0.00    38830.28   100.00   100.00
[OTHER] 
TILT=NONE
1 38830 1 181 25 1 2 0.170 0.190 0.000
1.000 1 250.229
0.0    1.0    2.0    3.0    4.0    5.0    6.0    7.0    8.0    9.0    
 10.0   11.0   12.0   13.0   14.0   15.0   16.0   17.0   18.0   19.0   
 20.0   21.0   22.0   23.0   24.0   25.0   26.0   27.0   28.0   29.0   
 30.0   31.0   32.0   33.0   34.0   35.0   36.0   37.0   38.0   39.0   
 40.0   41.0   42.0   43.0   44.0   45.0   46.0   47.0   48.0   49.0   
 50.0   51.0   52.0   53.0   54.0   55.0   56.0   57.0   58.0   59.0   
 60.0   61.0   62.0   63.0   64.0   65.0   66.0   67.0   68.0   69.0   
 70.0   71.0   72.0   73.0   74.0   75.0   76.0   77.0   78.0   79.0   
 80.0   81.0   82.0   83.0   84.0   85.0   86.0   87.0   88.0   89.0   
 90.0   91.0   92.0   93.0   94.0   95.0   96.0   97.0   98.0   99.0   
 100.0  101.0  102.0  103.0  104.0  105.0  106.0  107.0  108.0  109.0  
 110.0  111.0  112.0  113.0  114.0  115.0  116.0  117.0  118.0  119.0  
 120.0  121.0  122.0  123.0  124.0  125.0  126.0  127.0  128.0  129.0  
 130.0  131.0  132.0  133.0  134.0  135.0  136.0  137.0  138.0  139.0  
 140.0  141.0  142.0  143.0  144.0  145.0  146.0  147.0  148.0  149.0  
 150.0  151.0  152.0  153.0  154.0  155.0  156.0  157.0  158.0  159.0  
 160.0  161.0  162.0  163.0  164.0  165.0  166.0  167.0  168.0  169.0  
 170.0  171.0  172.0  173.0  174.0  175.0  176.0  177.0  178.0  179.0  
 180.0  
0.0    15.0   30.0   45.0   60.0   75.0   90.0   105.0  120.0  135.0  
 150.0  165.0  180.0  195.0  210.0  225.0  240.0  255.0  270.0  285.0  
 300.0  315.0  330.0  345.0  360.0  
7907.69  7957.39  8021.13  8099.69  8170.87  8224.64  8288.41  8369.04  8440.67  8493.79  
 8552.96  8634.38  8705.18  8758.69  8809.92  8885.00  8949.26  8997.70  9039.26  9106.65  
 9170.18  9219.86  9261.00  9328.84  9394.88  9450.43  9497.07  9574.00  9653.53  9728.49  
 9787.09  9874.34  9969.47  10060.51 10128.90 10220.47 10325.70 10423.96 10498.06 10592.59 
 10702.85 10806.62 10879.78 10966.37 11062.33 11151.28 11211.69 11273.04 11357.43 11429.09 
 11474.09 11516.02 11583.42 11636.49 11666.81 11693.51 11745.69 11770.13 11762.86 11730.11 
 11705.90 11657.19 11580.11 11462.12 11339.03 11195.39 11004.23 10738.89 10392.35 9939.00  
 9421.27  8776.38  8035.83  7171.54  6111.34  4945.02  3785.37  2775.14  1906.40  1258.55  
 1004.60  754.98   653.90   558.26   453.49   272.61   142.44   83.38    25.17    8.36     
 0.00     0.00     0.00     0.00     0.00     0.00     0.00     0.00     0.00     0.00     
 0.00     0.00     0.00     0.00     0.00     0.00     0.00     0.00     0.00     0.00     
 0.00     0.00     0.00     0.00     0.00     0.00     0.00     0.00     0.00     0.00     
 0.00     0.00     0.00     0.00     0.00     0.00     0.00     0.00     0.00     0.00     
 0.00     0.00     0.00     0.00     0.00     0.00     0.00     0.00     0.00     0.00     
 0.00     0.00     0.00     0.00     0.00     0.00     0.00     0.00     0.00     0.00     
 0.00     0.00     0.00     0.00     0.00     0.00     0.00     0.00     0.00     0.00     
 0.00     0.00     0.00     0.00     0.00     0.00     0.00     0.00     0.00     0.00     
 0.00     0.00     0.00     0.00     0.00     0.00     0.00     0.00     0.00     0.00     
 0.00     
7907.69  7985.79  8052.05  8112.79  8169.96  8249.80  8322.34  8381.39  8437.08  8514.41  
 8589.09  8647.70  8700.59  8776.25  8852.14  8906.46  8951.70  9017.22  9089.22  9134.97  
 9177.61  9237.65  9312.26  9362.38  9408.84  9470.21  9550.80  9612.37  9668.59  9736.88  
 9833.79  9909.40  9978.74  10055.89 10159.89 10248.65 10328.97 10408.32 10519.15 10619.77 
 10708.15 10794.00 10911.65 11018.62 11107.34 11182.78 11283.46 11377.63 11449.76 11509.11 
 11597.48 11681.84 11743.33 11791.40 11862.42 11937.42 11984.45 12012.96 12045.25 12075.45 
 12061.10 12011.29 11952.84 11914.99 11831.97 11700.55 11557.88 11432.02 11247.67 10975.55 
 10592.65 10119.44 9537.24  8919.08  8238.33  7399.46  6382.66  5293.18  4189.52  3208.43  
 2229.27  1477.60  995.39   730.89   588.23   423.21   258.19   93.99    37.42    15.57    
 0.00     0.00     0.00     0.00     0.00     0.00     0.00     0.00     0.00     0.00     
 0.00     0.00     0.00     0.00     0.00     0.00     0.00     0.00     0.00     0.00     
 0.00     0.00     0.00     0.00     0.00     0.00     0.00     0.00     0.00     0.00     
 0.00     0.00     0.00     0.00     0.00     0.00     0.00     0.00     0.00     0.00     
 0.00     0.00     0.00     0.00     0.00     0.00     0.00     0.00     0.00     0.00     
 0.00     0.00     0.00     0.00     0.00     0.00     0.00     0.00     0.00     0.00     
 0.00     0.00     0.00     0.00     0.00     0.00     0.00     0.00     0.00     0.00     
 0.00     0.00     0.00     0.00     0.00     0.00     0.00     0.00     0.00     0.00     
 0.00     0.00     0.00     0.00     0.00     0.00     0.00     0.00     0.00     0.00     
 0.00     
7907.69  7972.63  8026.18  8075.83  8147.67  8216.63  8271.50  8319.91  8391.29  8458.75  
 8516.94  8565.39  8633.85  8703.80  8762.43  8806.67  8869.06  8933.07  8989.13  9021.64  
 9076.49  9141.25  9202.35  9239.08  9296.10  9363.82  9428.72  9472.07  9528.72  9606.05  
 9676.10  9729.30  9791.94  9883.19  9970.16  10039.89 10115.29 10223.49 10326.30 10413.42 
 10499.50 10621.17 10741.60 10844.83 10941.58 11065.50 11183.86 11284.95 11360.69 11463.44 
 11561.58 11648.22 11710.84 11800.82 11895.74 11981.07 12041.98 12131.12 12227.72 12314.74 
 12359.69 12403.25 12442.74 12463.74 12454.78 12460.12 12476.94 12462.46 12405.28 12340.48 
 12288.20 12192.41 11980.07 11677.21 11343.06 10929.37 10479.10 9875.44  9155.97  8298.51  
 7319.99  6030.16  4665.66  3299.09  2042.66  1125.54  630.15   139.92   75.69    16.51    
 0.00     0.00     0.00     0.00     0.00     0.00     0.00     0.00     0.00     0.00     
 0.00     0.00     0.00     0.00     0.00     0.00     0.00     0.00     0.00     0.00     
 0.00     0.00     0.00     0.00     0.00     0.00     0.00     0.00     0.00     0.00     
 0.00     0.00     0.00     0.00     0.00     0.00     0.00     0.00     0.00     0.00     
 0.00     0.00     0.00     0.00     0.00     0.00     0.00     0.00     0.00     0.00     
 0.00     0.00     0.00     0.00     0.00     0.00     0.00     0.00     0.00     0.00     
 0.00     0.00     0.00     0.00     0.00     0.00     0.00     0.00     0.00     0.00     
 0.00     0.00     0.00     0.00     0.00     0.00     0.00     0.00     0.00     0.00     
 0.00     0.00     0.00     0.00     0.00     0.00     0.00     0.00     0.00     0.00     
 0.00     
7907.69  7959.37  8002.21  8044.41  8108.81  8164.29  8208.78  8248.06  8312.74  8369.49  
 8413.96  8449.38  8510.04  8569.73  8614.19  8649.61  8707.33  8767.40  8809.74  8843.29  
 8894.28  8956.07  8998.43  9032.49  9081.42  9146.13  9189.36  9227.23  9277.90  9347.70  
 9397.17  9442.23  9498.42  9579.75  9645.07  9709.17  9778.16  9876.93  9966.82  10050.88 
 10141.51 10259.11 10373.56 10476.66 10580.35 10706.26 10821.04 10913.47 10999.00 11113.56 
 11229.61 11324.60 11415.72 11540.56 11669.35 11774.94 11874.87 12002.26 12144.16 12259.89 
 12365.69 12490.06 12620.42 12719.61 12809.80 12910.75 13008.84 13063.83 13099.19 13101.71 
 13150.76 13180.81 13156.56 13079.97 13021.69 12687.60 11971.06 11145.94 10485.39 9612.57  
 8362.94  6641.59  4711.45  3219.03  1733.94  1015.58  698.10   380.61   65.24    19.68    
 0.00     0.00     0.00     0.00     0.00     0.00     0.00     0.00     0.00     0.00     
 0.00     0.00     0.00     0.00     0.00     0.00     0.00     0.00     0.00     0.00     
 0.00     0.00     0.00     0.00     0.00     0.00     0.00     0.00     0.00     0.00     
 0.00     0.00     0.00     0.00     0.00     0.00     0.00     0.00     0.00     0.00     
 0.00     0.00     0.00     0.00     0.00     0.00     0.00     0.00     0.00     0.00     
 0.00     0.00     0.00     0.00     0.00     0.00     0.00     0.00     0.00     0.00     
 0.00     0.00     0.00     0.00     0.00     0.00     0.00     0.00     0.00     0.00     
 0.00     0.00     0.00     0.00     0.00     0.00     0.00     0.00     0.00     0.00     
 0.00     0.00     0.00     0.00     0.00     0.00     0.00     0.00     0.00     0.00     
 0.00     
7907.69  7955.54  7999.73  8024.14  8058.00  8107.38  8150.34  8175.19  8205.68  8254.70  
 8295.97  8321.20  8344.15  8391.85  8434.36  8460.01  8479.54  8525.90  8566.30  8594.47  
 8615.78  8660.92  8703.40  8735.36  8756.70  8801.45  8847.29  8887.56  8914.48  8965.12  
 9023.19  9077.16  9115.55  9177.25  9252.67  9329.49  9387.01  9468.68  9567.99  9666.91  
 9746.96  9843.12  9960.88  10062.95 10145.11 10231.66 10348.07 10456.42 10550.81 10650.93 
 10787.31 10916.04 11030.41 11144.61 11296.98 11447.29 11585.81 11722.53 11899.54 12077.40 
 12235.53 12371.65 12555.28 12748.75 12933.52 13082.11 13226.49 13342.28 13408.64 13371.56 
 13242.21 12816.13 12153.01 11224.56 10239.91 9192.12  8117.56  6972.61  5824.32  4623.53  
 3433.48  2267.08  1416.42  930.28   447.87   248.18   142.54   89.71    37.51    15.54    
 0.00     0.00     0.00     0.00     0.00     0.00     0.00     0.00     0.00     0.00     
 0.00     0.00     0.00     0.00     0.00     0.00     0.00     0.00     0.00     0.00     
 0.00     0.00     0.00     0.00     0.00     0.00     0.00     0.00     0.00     0.00     
 0.00     0.00     0.00     0.00     0.00     0.00     0.00     0.00     0.00     0.00     
 0.00     0.00     0.00     0.00     0.00     0.00     0.00     0.00     0.00     0.00     
 0.00     0.00     0.00     0.00     0.00     0.00     0.00     0.00     0.00     0.00     
 0.00     0.00     0.00     0.00     0.00     0.00     0.00     0.00     0.00     0.00     
 0.00     0.00     0.00     0.00     0.00     0.00     0.00     0.00     0.00     0.00     
 0.00     0.00     0.00     0.00     0.00     0.00     0.00     0.00     0.00     0.00     
 0.00     
7907.69  7923.34  7934.98  7969.27  7997.56  8012.76  8021.44  8050.70  8080.17  8092.83  
 8097.65  8122.70  8151.37  8161.06  8163.34  8184.19  8212.41  8221.27  8225.20  8241.37  
 8270.48  8280.19  8285.35  8299.07  8331.13  8344.27  8357.45  8374.64  8416.08  8445.72  
 8471.57  8505.25  8563.71  8615.40  8662.50  8714.06  8795.42  8871.64  8937.79  9005.02  
 9096.97  9182.68  9251.80  9322.85  9425.47  9529.21  9617.40  9705.03  9826.38  9957.24  
 10071.29 10185.21 10329.59 10495.60 10641.05 10789.64 10962.39 11158.07 11329.33 11497.42 
 11687.30 11915.47 12104.78 12271.97 12368.48 12479.29 12552.68 12522.84 12211.68 11602.52 
 10760.44 9818.59  8903.80  7916.48  6856.19  5720.83  4577.46  3616.50  2655.55  1697.51  
 1089.10  703.04   435.34   345.07   254.80   164.89   110.53   64.75    32.29    15.57    
 0.00     0.00     0.00     0.00     0.00     0.00     0.00     0.00     0.00     0.00     
 0.00     0.00     0.00     0.00     0.00     0.00     0.00     0.00     0.00     0.00     
 0.00     0.00     0.00     0.00     0.00     0.00     0.00     0.00     0.00     0.00     
 0.00     0.00     0.00     0.00     0.00     0.00     0.00     0.00     0.00     0.00     
 0.00     0.00     0.00     0.00     0.00     0.00     0.00     0.00     0.00     0.00     
 0.00     0.00     0.00     0.00     0.00     0.00     0.00     0.00     0.00     0.00     
 0.00     0.00     0.00     0.00     0.00     0.00     0.00     0.00     0.00     0.00     
 0.00     0.00     0.00     0.00     0.00     0.00     0.00     0.00     0.00     0.00     
 0.00     0.00     0.00     0.00     0.00     0.00     0.00     0.00     0.00     0.00     
 0.00     
7907.69  7924.16  7938.80  7938.70  7930.89  7941.95  7957.37  7954.74  7944.77  7949.52  
 7963.27  7957.69  7945.12  7943.15  7953.50  7944.95  7928.54  7919.90  7930.65  7921.30  
 7906.14  7897.03  7905.76  7901.04  7890.51  7883.55  7896.58  7902.85  7902.85  7903.17  
 7928.46  7951.64  7966.46  7983.26  8027.25  8071.55  8104.90  8133.14  8188.60  8247.66  
 8293.27  8333.59  8397.56  8471.03  8531.51  8591.42  8675.76  8774.17  8859.58  8941.46  
 9044.11  9168.70  9277.41  9386.38  9508.86  9652.50  9778.90  9898.74  10030.15 10185.11 
 10316.04 10429.57 10522.29 10620.73 10675.65 10655.75 10551.37 10297.70 9900.88  9425.84  
 8950.30  8431.02  7819.60  7124.03  6383.51  5622.73  4843.12  4023.75  3283.95  2544.15  
 1807.05  1306.96  852.96   581.63   426.98   272.34   118.61   56.36    20.49    10.51    
 0.00     0.00     0.00     0.00     0.00     0.00     0.00     0.00     0.00     0.00     
 0.00     0.00     0.00     0.00     0.00     0.00     0.00     0.00     0.00     0.00     
 0.00     0.00     0.00     0.00     0.00     0.00     0.00     0.00     0.00     0.00     
 0.00     0.00     0.00     0.00     0.00     0.00     0.00     0.00     0.00     0.00     
 0.00     0.00     0.00     0.00     0.00     0.00     0.00     0.00     0.00     0.00     
 0.00     0.00     0.00     0.00     0.00     0.00     0.00     0.00     0.00     0.00     
 0.00     0.00     0.00     0.00     0.00     0.00     0.00     0.00     0.00     0.00     
 0.00     0.00     0.00     0.00     0.00     0.00     0.00     0.00     0.00     0.00     
 0.00     0.00     0.00     0.00     0.00     0.00     0.00     0.00     0.00     0.00     
 0.00     
7907.69  7901.39  7875.36  7863.00  7860.39  7851.59  7825.14  7807.73  7804.22  7794.98  
 7767.68  7743.57  7737.09  7723.63  7695.02  7663.77  7653.92  7637.51  7607.23  7571.37  
 7559.74  7542.89  7515.10  7480.93  7467.66  7454.99  7434.77  7405.34  7399.19  7395.79  
 7386.97  7364.70  7365.76  7373.73  7377.57  7365.03  7371.21  7387.19  7402.78  7402.52  
 7419.25  7447.87  7476.18  7489.41  7515.07  7558.86  7599.86  7628.69  7663.70  7718.06  
 7768.22  7806.37  7843.97  7906.68  7964.61  8007.41  8042.96  8098.56  8138.40  8153.80  
 8146.37  8139.21  8097.72  8005.27  7865.86  7699.65  7475.83  7136.31  6643.30  6124.70  
 5677.99  5194.96  4696.23  4188.09  3667.71  3132.58  2627.86  2135.98  1634.17  1179.60  
 839.45   500.23   341.55   249.25   183.35   124.34   79.56    34.92    15.77    11.56    
 0.00     0.00     0.00     0.00     0.00     0.00     0.00     0.00     0.00     0.00     
 0.00     0.00     0.00     0.00     0.00     0.00     0.00     0.00     0.00     0.00     
 0.00     0.00     0.00     0.00     0.00     0.00     0.00     0.00     0.00     0.00     
 0.00     0.00     0.00     0.00     0.00     0.00     0.00     0.00     0.00     0.00     
 0.00     0.00     0.00     0.00     0.00     0.00     0.00     0.00     0.00     0.00     
 0.00     0.00     0.00     0.00     0.00     0.00     0.00     0.00     0.00     0.00     
 0.00     0.00     0.00     0.00     0.00     0.00     0.00     0.00     0.00     0.00     
 0.00     0.00     0.00     0.00     0.00     0.00     0.00     0.00     0.00     0.00     
 0.00     0.00     0.00     0.00     0.00     0.00     0.00     0.00     0.00     0.00     
 0.00     
7907.69  7887.01  7872.42  7840.58  7800.97  7776.55  7762.78  7730.95  7693.46  7664.42  
 7651.07  7616.73  7577.82  7542.05  7524.49  7489.69  7447.37  7406.53  7383.10  7348.39  
 7304.78  7260.12  7235.03  7199.80  7156.17  7110.28  7086.09  7056.32  7015.63  6971.44  
 6947.38  6923.15  6889.23  6850.49  6831.06  6815.24  6785.59  6754.45  6739.31  6732.38  
 6712.46  6690.61  6679.31  6679.97  6663.41  6641.89  6627.23  6625.72  6604.06  6575.71  
 6548.72  6529.83  6490.25  6434.01  6368.43  6306.81  6222.75  6116.31  5993.51  5866.99  
 5709.12  5517.81  5295.59  5074.85  4839.45  4578.65  4314.88  4047.88  3752.91  3427.43  
 3070.07  2712.70  2355.54  2013.70  1616.18  1193.97  843.78   646.14   562.01   494.50   
 422.51   360.47   293.39   226.31   159.46   111.21   70.45    31.37    18.15    14.43    
 0.00     0.00     0.00     0.00     0.00     0.00     0.00     0.00     0.00     0.00     
 0.00     0.00     0.00     0.00     0.00     0.00     0.00     0.00     0.00     0.00     
 0.00     0.00     0.00     0.00     0.00     0.00     0.00     0.00     0.00     0.00     
 0.00     0.00     0.00     0.00     0.00     0.00     0.00     0.00     0.00     0.00     
 0.00     0.00     0.00     0.00     0.00     0.00     0.00     0.00     0.00     0.00     
 0.00     0.00     0.00     0.00     0.00     0.00     0.00     0.00     0.00     0.00     
 0.00     0.00     0.00     0.00     0.00     0.00     0.00     0.00     0.00     0.00     
 0.00     0.00     0.00     0.00     0.00     0.00     0.00     0.00     0.00     0.00     
 0.00     0.00     0.00     0.00     0.00     0.00     0.00     0.00     0.00     0.00     
 0.00     
7907.69  7856.22  7806.73  7779.08  7744.04  7697.74  7647.88  7620.60  7588.09  7545.05  
 7492.28  7462.07  7427.85  7382.28  7328.22  7289.20  7250.40  7205.64  7147.42  7107.08  
 7068.17  7022.56  6959.28  6912.63  6872.41  6828.46  6769.38  6725.83  6691.91  6653.89  
 6602.43  6561.32  6534.55  6502.46  6456.07  6410.82  6379.00  6337.63  6282.08  6225.84  
 6184.68  6136.54  6072.00  5996.83  5929.53  5854.33  5762.71  5657.94  5564.41  5461.73  
 5343.76  5202.76  5068.23  4929.58  4788.37  4639.60  4502.07  4360.46  4203.28  4018.29  
 3824.28  3612.72  3384.13  3134.01  2885.78  2640.92  2403.64  2179.00  1969.14  1776.19  
 1598.89  1425.08  1268.50  1134.80  1001.33  884.94   785.95   703.40   622.13   544.84   
 466.73   380.48   302.16   232.63   170.78   122.50   74.36    26.22    11.98    8.09     
 0.00     0.00     0.00     0.00     0.00     0.00     0.00     0.00     0.00     0.00     
 0.00     0.00     0.00     0.00     0.00     0.00     0.00     0.00     0.00     0.00     
 0.00     0.00     0.00     0.00     0.00     0.00     0.00     0.00     0.00     0.00     
 0.00     0.00     0.00     0.00     0.00     0.00     0.00     0.00     0.00     0.00     
 0.00     0.00     0.00     0.00     0.00     0.00     0.00     0.00     0.00     0.00     
 0.00     0.00     0.00     0.00     0.00     0.00     0.00     0.00     0.00     0.00     
 0.00     0.00     0.00     0.00     0.00     0.00     0.00     0.00     0.00     0.00     
 0.00     0.00     0.00     0.00     0.00     0.00     0.00     0.00     0.00     0.00     
 0.00     0.00     0.00     0.00     0.00     0.00     0.00     0.00     0.00     0.00     
 0.00     
7907.69  7868.20  7820.63  7762.57  7702.69  7665.78  7624.53  7570.65  7510.46  7471.90  
 7432.34  7377.61  7316.38  7272.36  7231.08  7174.25  7112.13  7062.22  7018.82  6960.48  
 6898.76  6849.32  6811.45  6758.05  6703.07  6655.82  6625.55  6579.31  6528.11  6481.67  
 6447.69  6395.51  6335.78  6277.02  6229.02  6169.14  6096.19  6016.66  5946.13  5858.29  
 5758.17  5647.16  5546.24  5435.52  5310.39  5170.65  5036.26  4893.36  4738.27  4579.96  
 4431.94  4269.80  4082.55  3861.90  3628.75  3381.64  3122.19  2884.26  2646.32  2408.86  
 2212.52  2039.23  1891.23  1764.86  1654.48  1563.40  1498.54  1441.99  1381.64  1316.75  
 1249.05  1179.81  1106.38  1029.21  955.93   883.69   806.24   727.75   645.95   565.63   
 485.52   411.57   336.63   252.96   169.47   99.90    57.76    36.03    23.76    20.10    
 0.00     0.00     0.00     0.00     0.00     0.00     0.00     0.00     0.00     0.00     
 0.00     0.00     0.00     0.00     0.00     0.00     0.00     0.00     0.00     0.00     
 0.00     0.00     0.00     0.00     0.00     0.00     0.00     0.00     0.00     0.00     
 0.00     0.00     0.00     0.00     0.00     0.00     0.00     0.00     0.00     0.00     
 0.00     0.00     0.00     0.00     0.00     0.00     0.00     0.00     0.00     0.00     
 0.00     0.00     0.00     0.00     0.00     0.00     0.00     0.00     0.00     0.00     
 0.00     0.00     0.00     0.00     0.00     0.00     0.00     0.00     0.00     0.00     
 0.00     0.00     0.00     0.00     0.00     0.00     0.00     0.00     0.00     0.00     
 0.00     0.00     0.00     0.00     0.00     0.00     0.00     0.00     0.00     0.00     
 0.00     
7907.69  7852.23  7781.18  7717.58  7676.31  7626.52  7563.53  7499.98  7458.68  7410.45  
 7348.30  7283.50  7236.74  7187.62  7128.81  7059.41  7010.25  6959.43  6901.46  6836.28  
 6790.35  6749.22  6703.50  6643.88  6603.06  6564.91  6523.00  6463.55  6413.89  6366.84  
 6312.68  6241.66  6175.10  6111.95  6036.22  5938.12  5835.63  5737.73  5629.65  5506.51  
 5382.81  5264.14  5127.47  4964.59  4788.47  4624.83  4454.58  4263.67  4049.91  3822.93  
 3575.07  3310.87  3044.42  2803.12  2582.63  2392.57  2231.75  2098.08  1985.64  1898.17  
 1831.92  1771.04  1704.58  1635.97  1560.62  1489.41  1421.60  1324.83  1245.88  1167.08  
 1088.28  1018.78  950.95   882.63   799.53   722.57   641.15   571.53   507.76   444.08   
 376.29   315.07   257.71   186.35   121.88   84.13    46.64    26.91    21.62    11.41    
 0.00     0.00     0.00     0.00     0.00     0.00     0.00     0.00     0.00     0.00     
 0.00     0.00     0.00     0.00     0.00     0.00     0.00     0.00     0.00     0.00     
 0.00     0.00     0.00     0.00     0.00     0.00     0.00     0.00     0.00     0.00     
 0.00     0.00     0.00     0.00     0.00     0.00     0.00     0.00     0.00     0.00     
 0.00     0.00     0.00     0.00     0.00     0.00     0.00     0.00     0.00     0.00     
 0.00     0.00     0.00     0.00     0.00     0.00     0.00     0.00     0.00     0.00     
 0.00     0.00     0.00     0.00     0.00     0.00     0.00     0.00     0.00     0.00     
 0.00     0.00     0.00     0.00     0.00     0.00     0.00     0.00     0.00     0.00     
 0.00     0.00     0.00     0.00     0.00     0.00     0.00     0.00     0.00     0.00     
 0.00     
7907.69  7841.17  7768.07  7705.26  7662.75  7604.29  7540.81  7477.99  7433.13  7376.35  
 7312.45  7249.58  7202.91  7146.11  7081.33  7014.26  6964.70  6911.69  6849.47  6786.39  
 6745.34  6704.59  6652.06  6594.73  6557.50  6520.93  6469.16  6406.28  6358.05  6310.46  
 6247.86  6171.75  6101.51  6031.83  5936.48  5829.43  5724.11  5623.15  5502.43  5372.87  
 5237.82  5098.68  4930.90  4743.85  4557.28  4375.54  4176.76  3951.37  3704.15  3450.59  
 3192.00  2966.26  2740.52  2515.50  2360.73  2223.73  2105.24  2021.04  1969.14  1925.18  
 1873.99  1817.13  1749.11  1677.70  1604.94  1534.91  1430.54  1323.31  1230.62  1136.81  
 1055.43  985.29   924.61   830.53   718.57   599.47   529.01   469.67   404.10   316.93   
 270.49   224.04   177.49   121.94   70.09    36.72    20.12    10.20    10.28    4.96     
 0.00     0.00     0.00     0.00     0.00     0.00     0.00     0.00     0.00     0.00     
 0.00     0.00     0.00     0.00     0.00     0.00     0.00     0.00     0.00     0.00     
 0.00     0.00     0.00     0.00     0.00     0.00     0.00     0.00     0.00     0.00     
 0.00     0.00     0.00     0.00     0.00     0.00     0.00     0.00     0.00     0.00     
 0.00     0.00     0.00     0.00     0.00     0.00     0.00     0.00     0.00     0.00     
 0.00     0.00     0.00     0.00     0.00     0.00     0.00     0.00     0.00     0.00     
 0.00     0.00     0.00     0.00     0.00     0.00     0.00     0.00     0.00     0.00     
 0.00     0.00     0.00     0.00     0.00     0.00     0.00     0.00     0.00     0.00     
 0.00     0.00     0.00     0.00     0.00     0.00     0.00     0.00     0.00     0.00     
 0.00     
7907.69  7851.82  7798.25  7738.37  7666.63  7615.61  7567.56  7514.06  7443.66  7391.21  
 7342.73  7289.64  7215.86  7160.03  7111.52  7055.47  6983.11  6922.22  6875.33  6824.79  
 6761.15  6707.93  6669.97  6626.24  6569.39  6514.13  6476.17  6430.03  6367.71  6302.28  
 6249.04  6188.75  6112.81  6025.35  5944.54  5854.93  5746.70  5626.50  5514.12  5401.49  
 5275.39  5133.16  4984.87  4820.95  4640.46  4456.45  4271.99  4079.94  3859.57  3613.67  
 3360.25  3106.93  2859.50  2630.24  2436.11  2281.90  2144.89  2024.89  1933.28  1874.79  
 1827.53  1764.07  1698.21  1636.97  1569.02  1495.97  1417.80  1318.11  1235.65  1153.33  
 1071.02  999.96   935.56   862.39   778.21   686.39   619.49   555.90   492.02   426.32   
 361.20   304.26   245.74   172.16   128.95   86.06    43.16    26.70    22.06    10.71    
 0.00     0.00     0.00     0.00     0.00     0.00     0.00     0.00     0.00     0.00     
 0.00     0.00     0.00     0.00     0.00     0.00     0.00     0.00     0.00     0.00     
 0.00     0.00     0.00     0.00     0.00     0.00     0.00     0.00     0.00     0.00     
 0.00     0.00     0.00     0.00     0.00     0.00     0.00     0.00     0.00     0.00     
 0.00     0.00     0.00     0.00     0.00     0.00     0.00     0.00     0.00     0.00     
 0.00     0.00     0.00     0.00     0.00     0.00     0.00     0.00     0.00     0.00     
 0.00     0.00     0.00     0.00     0.00     0.00     0.00     0.00     0.00     0.00     
 0.00     0.00     0.00     0.00     0.00     0.00     0.00     0.00     0.00     0.00     
 0.00     0.00     0.00     0.00     0.00     0.00     0.00     0.00     0.00     0.00     
 0.00     
7907.69  7836.31  7789.24  7742.04  7683.05  7619.69  7575.21  7533.88  7476.73  7412.88  
 7365.46  7324.57  7266.39  7200.40  7147.10  7104.48  7043.36  6976.86  6916.03  6872.33  
 6814.63  6753.21  6697.85  6658.29  6607.76  6550.55  6496.07  6459.49  6412.71  6354.56  
 6291.71  6243.72  6188.04  6120.16  6048.19  5985.79  5916.89  5829.39  5728.60  5637.79  
 5540.49  5427.11  5307.18  5193.06  5072.41  4929.78  4772.49  4616.11  4465.85  4301.68  
 4129.80  3944.72  3742.07  3507.66  3257.47  3003.70  2768.36  2533.29  2322.49  2144.09  
 1996.01  1860.30  1743.12  1648.37  1576.35  1513.08  1453.73  1393.61  1338.08  1280.42  
 1218.25  1152.15  1082.03  1011.87  941.69   866.49   791.20   715.10   633.95   554.33   
 473.76   392.82   311.62   230.41   149.39   83.53    50.45    30.76    23.08    19.63    
 0.00     0.00     0.00     0.00     0.00     0.00     0.00     0.00     0.00     0.00     
 0.00     0.00     0.00     0.00     0.00     0.00     0.00     0.00     0.00     0.00     
 0.00     0.00     0.00     0.00     0.00     0.00     0.00     0.00     0.00     0.00     
 0.00     0.00     0.00     0.00     0.00     0.00     0.00     0.00     0.00     0.00     
 0.00     0.00     0.00     0.00     0.00     0.00     0.00     0.00     0.00     0.00     
 0.00     0.00     0.00     0.00     0.00     0.00     0.00     0.00     0.00     0.00     
 0.00     0.00     0.00     0.00     0.00     0.00     0.00     0.00     0.00     0.00     
 0.00     0.00     0.00     0.00     0.00     0.00     0.00     0.00     0.00     0.00     
 0.00     0.00     0.00     0.00     0.00     0.00     0.00     0.00     0.00     0.00     
 0.00     
7907.69  7843.73  7801.55  7761.65  7715.88  7655.07  7614.56  7579.72  7540.73  7479.42  
 7434.72  7397.33  7355.79  7293.59  7243.85  7203.06  7157.82  7094.37  7037.87  6994.90  
 6947.00  6885.19  6824.09  6781.93  6734.04  6676.42  6616.62  6578.80  6537.68  6484.34  
 6428.79  6393.39  6356.92  6310.34  6259.04  6219.91  6176.67  6124.14  6060.76  6010.56  
 5958.40  5896.55  5815.70  5740.55  5665.04  5579.43  5473.12  5375.05  5275.36  5165.98  
 5032.89  4897.15  4761.39  4624.79  4481.88  4339.75  4198.47  4038.69  3849.71  3646.18  
 3431.18  3197.35  2946.79  2700.68  2464.29  2240.17  2030.89  1846.97  1678.84  1523.04  
 1378.29  1241.20  1142.58  1044.24  953.59   863.20   779.10   695.51   615.14   536.65   
 452.93   369.97   289.11   218.20   153.78   98.77    43.85    23.72    11.59    7.75     
 0.00     0.00     0.00     0.00     0.00     0.00     0.00     0.00     0.00     0.00     
 0.00     0.00     0.00     0.00     0.00     0.00     0.00     0.00     0.00     0.00     
 0.00     0.00     0.00     0.00     0.00     0.00     0.00     0.00     0.00     0.00     
 0.00     0.00     0.00     0.00     0.00     0.00     0.00     0.00     0.00     0.00     
 0.00     0.00     0.00     0.00     0.00     0.00     0.00     0.00     0.00     0.00     
 0.00     0.00     0.00     0.00     0.00     0.00     0.00     0.00     0.00     0.00     
 0.00     0.00     0.00     0.00     0.00     0.00     0.00     0.00     0.00     0.00     
 0.00     0.00     0.00     0.00     0.00     0.00     0.00     0.00     0.00     0.00     
 0.00     0.00     0.00     0.00     0.00     0.00     0.00     0.00     0.00     0.00     
 0.00     
7907.69  7870.09  7849.05  7807.41  7762.05  7722.39  7702.64  7665.22  7622.90  7581.92  
 7559.71  7524.35  7478.50  7432.45  7405.58  7367.67  7319.24  7268.53  7236.18  7196.71  
 7147.41  7092.87  7059.29  7021.80  6972.50  6918.40  6884.86  6850.75  6803.98  6751.58  
 6718.19  6690.45  6648.39  6603.56  6574.40  6556.39  6523.24  6486.84  6459.42  6446.51  
 6418.87  6387.59  6361.84  6350.19  6320.42  6285.65  6254.80  6235.97  6203.59  6161.53  
 6117.49  6082.06  6030.92  5964.34  5886.33  5817.83  5734.83  5631.88  5510.01  5384.41  
 5227.43  5042.62  4846.69  4665.82  4483.19  4284.24  4058.16  3810.05  3543.98  3249.15  
 2898.33  2547.51  2196.84  1857.31  1467.59  1097.70  817.21   652.09   564.92   497.73   
 422.15   351.52   275.78   200.28   144.95   99.55    54.46    25.26    17.06    14.43    
 0.00     0.00     0.00     0.00     0.00     0.00     0.00     0.00     0.00     0.00     
 0.00     0.00     0.00     0.00     0.00     0.00     0.00     0.00     0.00     0.00     
 0.00     0.00     0.00     0.00     0.00     0.00     0.00     0.00     0.00     0.00     
 0.00     0.00     0.00     0.00     0.00     0.00     0.00     0.00     0.00     0.00     
 0.00     0.00     0.00     0.00     0.00     0.00     0.00     0.00     0.00     0.00     
 0.00     0.00     0.00     0.00     0.00     0.00     0.00     0.00     0.00     0.00     
 0.00     0.00     0.00     0.00     0.00     0.00     0.00     0.00     0.00     0.00     
 0.00     0.00     0.00     0.00     0.00     0.00     0.00     0.00     0.00     0.00     
 0.00     0.00     0.00     0.00     0.00     0.00     0.00     0.00     0.00     0.00     
 0.00     
7907.69  7879.80  7845.09  7831.78  7816.53  7791.66  7756.14  7737.75  7722.46  7699.63  
 7660.77  7639.41  7622.84  7598.73  7557.32  7529.65  7509.30  7484.34  7439.58  7405.98  
 7384.67  7358.43  7315.33  7280.49  7261.28  7236.74  7198.68  7165.66  7154.00  7137.09  
 7107.11  7077.43  7072.12  7061.15  7040.04  7016.74  7015.71  7009.39  6995.08  6975.62  
 6978.37  6982.60  6980.54  6972.12  6983.81  7001.15  7016.43  7022.02  7048.15  7082.43  
 7114.16  7130.42  7165.01  7211.96  7255.24  7280.00  7318.46  7364.61  7401.57  7416.59  
 7431.01  7447.48  7438.41  7389.19  7306.40  7195.15  7032.79  6777.92  6388.56  5903.86  
 5445.32  5022.75  4567.61  4100.50  3598.83  3099.77  2616.70  2085.45  1451.64  1109.95  
 770.75   431.55   307.05   229.95   164.15   117.61   71.24    24.88    14.88    11.81    
 0.00     0.00     0.00     0.00     0.00     0.00     0.00     0.00     0.00     0.00     
 0.00     0.00     0.00     0.00     0.00     0.00     0.00     0.00     0.00     0.00     
 0.00     0.00     0.00     0.00     0.00     0.00     0.00     0.00     0.00     0.00     
 0.00     0.00     0.00     0.00     0.00     0.00     0.00     0.00     0.00     0.00     
 0.00     0.00     0.00     0.00     0.00     0.00     0.00     0.00     0.00     0.00     
 0.00     0.00     0.00     0.00     0.00     0.00     0.00     0.00     0.00     0.00     
 0.00     0.00     0.00     0.00     0.00     0.00     0.00     0.00     0.00     0.00     
 0.00     0.00     0.00     0.00     0.00     0.00     0.00     0.00     0.00     0.00     
 0.00     0.00     0.00     0.00     0.00     0.00     0.00     0.00     0.00     0.00     
 0.00     
7907.69  7915.87  7915.12  7901.30  7883.16  7887.99  7887.21  7873.83  7851.94  7851.68  
 7848.75  7835.75  7810.93  7806.05  7801.40  7788.79  7761.10  7751.15  7744.76  7732.57  
 7702.32  7689.43  7683.01  7674.57  7646.87  7634.43  7635.98  7633.91  7616.34  7609.85  
 7620.64  7628.71  7624.21  7626.25  7650.11  7669.62  7677.78  7685.40  7716.79  7744.76  
 7760.56  7776.22  7817.78  7859.66  7896.52  7931.65  7995.20  8061.17  8126.32  8190.21  
 8282.31  8383.72  8483.15  8575.46  8694.42  8826.67  8953.22  9065.90  9205.20  9359.86  
 9515.94  9646.55  9788.53  9923.56  10041.78 10112.99 10115.48 9980.42  9679.81  9274.84  
 8890.10  8518.14  8041.26  7449.24  6770.53  6075.29  5330.12  4543.39  3582.62  2901.77  
 2307.79  1713.48  1171.47  830.75   492.09   262.54   116.61   66.54    17.62    11.35    
 0.00     0.00     0.00     0.00     0.00     0.00     0.00     0.00     0.00     0.00     
 0.00     0.00     0.00     0.00     0.00     0.00     0.00     0.00     0.00     0.00     
 0.00     0.00     0.00     0.00     0.00     0.00     0.00     0.00     0.00     0.00     
 0.00     0.00     0.00     0.00     0.00     0.00     0.00     0.00     0.00     0.00     
 0.00     0.00     0.00     0.00     0.00     0.00     0.00     0.00     0.00     0.00     
 0.00     0.00     0.00     0.00     0.00     0.00     0.00     0.00     0.00     0.00     
 0.00     0.00     0.00     0.00     0.00     0.00     0.00     0.00     0.00     0.00     
 0.00     0.00     0.00     0.00     0.00     0.00     0.00     0.00     0.00     0.00     
 0.00     0.00     0.00     0.00     0.00     0.00     0.00     0.00     0.00     0.00     
 0.00     
7907.69  7909.01  7916.78  7943.65  7951.19  7952.08  7957.76  7982.52  7990.45  7988.78  
 7990.19  8009.53  8017.05  8014.93  8011.74  8029.83  8039.42  8035.59  8029.48  8045.45  
 8056.33  8053.32  8044.23  8059.86  8075.79  8076.99  8071.31  8090.37  8114.73  8123.99  
 8130.05  8157.58  8195.51  8220.40  8241.25  8279.85  8336.76  8379.83  8420.50  8473.51  
 8546.81  8598.59  8645.14  8702.39  8786.79  8858.57  8925.82  9002.55  9108.98  9211.15  
 9306.74  9413.53  9553.82  9697.01  9832.24  9972.38  10149.87 10333.07 10498.15 10651.90 
 10848.55 11066.84 11271.69 11471.04 11664.50 11810.08 11933.61 12023.62 11959.16 11612.41 
 10984.52 10156.25 9304.69  8422.97  7452.39  6381.28  5294.11  4189.38  3198.58  2209.37  
 1413.23  880.11   510.33   386.59   262.85   139.79   86.53    47.60    20.35    13.53    
 0.00     0.00     0.00     0.00     0.00     0.00     0.00     0.00     0.00     0.00     
 0.00     0.00     0.00     0.00     0.00     0.00     0.00     0.00     0.00     0.00     
 0.00     0.00     0.00     0.00     0.00     0.00     0.00     0.00     0.00     0.00     
 0.00     0.00     0.00     0.00     0.00     0.00     0.00     0.00     0.00     0.00     
 0.00     0.00     0.00     0.00     0.00     0.00     0.00     0.00     0.00     0.00     
 0.00     0.00     0.00     0.00     0.00     0.00     0.00     0.00     0.00     0.00     
 0.00     0.00     0.00     0.00     0.00     0.00     0.00     0.00     0.00     0.00     
 0.00     0.00     0.00     0.00     0.00     0.00     0.00     0.00     0.00     0.00     
 0.00     0.00     0.00     0.00     0.00     0.00     0.00     0.00     0.00     0.00     
 0.00     
7907.69  7948.52  7979.54  7995.78  8013.54  8053.00  8085.69  8103.23  8119.75  8157.18  
 8188.58  8206.09  8218.84  8252.06  8284.25  8305.11  8314.51  8345.15  8376.88  8397.76  
 8405.53  8434.91  8466.64  8492.94  8499.93  8529.74  8565.66  8598.20  8609.90  8642.65  
 8686.12  8730.56  8755.35  8797.48  8856.14  8912.88  8956.63  9013.21  9091.93  9171.09  
 9235.62  9306.24  9400.36  9486.39  9554.33  9622.48  9721.62  9815.66  9898.75  9981.30  
 10097.48 10210.97 10319.82 10423.60 10565.38 10711.38 10854.08 10987.53 11162.34 11346.39 
 11529.28 11688.67 11887.55 12102.83 12313.28 12473.48 12610.48 12732.56 12834.39 12896.21 
 12898.53 12709.20 12257.19 11508.70 10597.16 9652.68  8648.84  7566.46  6414.96  5268.94  
 4032.14  2750.78  1744.17  1251.30  763.68   276.07   136.18   80.07    24.92    12.35    
 0.00     0.00     0.00     0.00     0.00     0.00     0.00     0.00     0.00     0.00     
 0.00     0.00     0.00     0.00     0.00     0.00     0.00     0.00     0.00     0.00     
 0.00     0.00     0.00     0.00     0.00     0.00     0.00     0.00     0.00     0.00     
 0.00     0.00     0.00     0.00     0.00     0.00     0.00     0.00     0.00     0.00     
 0.00     0.00     0.00     0.00     0.00     0.00     0.00     0.00     0.00     0.00     
 0.00     0.00     0.00     0.00     0.00     0.00     0.00     0.00     0.00     0.00     
 0.00     0.00     0.00     0.00     0.00     0.00     0.00     0.00     0.00     0.00     
 0.00     0.00     0.00     0.00     0.00     0.00     0.00     0.00     0.00     0.00     
 0.00     0.00     0.00     0.00     0.00     0.00     0.00     0.00     0.00     0.00     
 0.00     
7907.69  7943.98  7972.49  8020.73  8073.44  8110.17  8140.77  8187.79  8242.89  8279.20  
 8308.04  8348.34  8403.97  8438.18  8467.85  8504.80  8559.15  8593.35  8622.57  8655.61  
 8708.76  8745.47  8772.55  8801.91  8852.11  8889.25  8918.42  8946.98  9000.22  9048.73  
 9085.39  9118.59  9181.16  9241.52  9288.42  9332.25  9407.99  9489.49  9558.39  9625.87  
 9718.15  9821.35  9908.85  9992.74  10097.65 10207.75 10286.33 10357.52 10445.66 10554.10 
 10638.18 10715.31 10810.28 10930.30 11027.90 11116.36 11216.00 11347.75 11458.52 11567.57 
 11671.88 11807.49 11930.96 12053.49 12166.74 12312.47 12437.60 12505.40 12539.72 12632.03 
 12689.40 12683.76 12617.83 12644.57 12679.91 12438.06 11822.73 11141.66 10584.95 9991.88  
 8761.29  7171.10  5311.65  3662.80  2021.66  1185.51  606.63   327.94   51.12    15.62    
 0.00     0.00     0.00     0.00     0.00     0.00     0.00     0.00     0.00     0.00     
 0.00     0.00     0.00     0.00     0.00     0.00     0.00     0.00     0.00     0.00     
 0.00     0.00     0.00     0.00     0.00     0.00     0.00     0.00     0.00     0.00     
 0.00     0.00     0.00     0.00     0.00     0.00     0.00     0.00     0.00     0.00     
 0.00     0.00     0.00     0.00     0.00     0.00     0.00     0.00     0.00     0.00     
 0.00     0.00     0.00     0.00     0.00     0.00     0.00     0.00     0.00     0.00     
 0.00     0.00     0.00     0.00     0.00     0.00     0.00     0.00     0.00     0.00     
 0.00     0.00     0.00     0.00     0.00     0.00     0.00     0.00     0.00     0.00     
 0.00     0.00     0.00     0.00     0.00     0.00     0.00     0.00     0.00     0.00     
 0.00     
7907.69  7968.87  8030.72  8083.76  8123.72  8183.51  8246.17  8302.17  8341.35  8400.00  
 8462.24  8519.07  8553.63  8606.80  8668.98  8722.87  8755.19  8801.61  8859.93  8911.27  
 8943.69  8985.52  9044.63  9098.08  9130.92  9169.83  9232.70  9290.63  9331.10  9374.69  
 9447.62  9514.63  9568.16  9622.38  9705.51  9786.87  9861.08  9930.19  10027.48 10127.43 
 10215.69 10296.28 10404.39 10514.94 10614.62 10693.65 10798.00 10902.63 10994.28 11057.69 
 11141.13 11237.14 11321.17 11374.91 11450.48 11542.64 11627.45 11683.27 11748.41 11834.60 
 11902.58 11920.82 11928.16 11971.34 11999.08 11991.87 11973.77 11966.03 11915.25 11859.80 
 11826.52 11796.83 11685.29 11430.40 11060.71 10766.19 10413.18 9849.68  9197.02  8522.41  
 7534.57  6338.33  4922.30  3453.47  2145.76  1210.79  662.87   119.68   63.25    12.59    
 0.00     0.00     0.00     0.00     0.00     0.00     0.00     0.00     0.00     0.00     
 0.00     0.00     0.00     0.00     0.00     0.00     0.00     0.00     0.00     0.00     
 0.00     0.00     0.00     0.00     0.00     0.00     0.00     0.00     0.00     0.00     
 0.00     0.00     0.00     0.00     0.00     0.00     0.00     0.00     0.00     0.00     
 0.00     0.00     0.00     0.00     0.00     0.00     0.00     0.00     0.00     0.00     
 0.00     0.00     0.00     0.00     0.00     0.00     0.00     0.00     0.00     0.00     
 0.00     0.00     0.00     0.00     0.00     0.00     0.00     0.00     0.00     0.00     
 0.00     0.00     0.00     0.00     0.00     0.00     0.00     0.00     0.00     0.00     
 0.00     0.00     0.00     0.00     0.00     0.00     0.00     0.00     0.00     0.00     
 0.00     
7907.69  7957.80  8021.87  8097.96  8155.54  8209.02  8272.29  8350.45  8407.45  8460.05  
 8520.36  8599.40  8656.10  8705.30  8761.39  8834.92  8888.64  8933.99  8980.78  9046.59  
 9099.05  9141.83  9183.98  9251.26  9308.78  9354.94  9399.70  9474.65  9544.89  9606.71  
 9664.81  9752.49  9838.37  9909.50  9974.99  10069.52 10170.58 10249.32 10322.43 10420.83 
 10530.75 10617.75 10699.63 10796.77 10910.04 10989.17 11057.47 11137.30 11237.40 11303.39 
 11358.92 11418.05 11501.23 11556.47 11596.71 11636.72 11700.54 11744.80 11762.83 11759.58 
 11771.14 11749.50 11680.29 11594.93 11530.92 11438.73 11312.18 11148.56 10973.40 10724.08 
 10352.30 9905.78  9413.93  8877.78  8228.69  7402.69  6400.66  5331.04  4222.14  3245.44  
 2270.93  1552.88  1024.08  714.34   557.61   399.86   242.11   85.14    31.71    12.18    
 0.00     0.00     0.00     0.00     0.00     0.00     0.00     0.00     0.00     0.00     
 0.00     0.00     0.00     0.00     0.00     0.00     0.00     0.00     0.00     0.00     
 0.00     0.00     0.00     0.00     0.00     0.00     0.00     0.00     0.00     0.00     
 0.00     0.00     0.00     0.00     0.00     0.00     0.00     0.00     0.00     0.00     
 0.00     0.00     0.00     0.00     0.00     0.00     0.00     0.00     0.00     0.00     
 0.00     0.00     0.00     0.00     0.00     0.00     0.00     0.00     0.00     0.00     
 0.00     0.00     0.00     0.00     0.00     0.00     0.00     0.00     0.00     0.00     
 0.00     0.00     0.00     0.00     0.00     0.00     0.00     0.00     0.00     0.00     
 0.00     0.00     0.00     0.00     0.00     0.00     0.00     0.00     0.00     0.00     
 0.00     
7907.69  7957.39  8021.13  8099.69  8170.87  8224.64  8288.41  8369.04  8440.67  8493.79  
 8552.96  8634.38  8705.18  8758.69  8809.92  8885.00  8949.26  8997.70  9039.26  9106.65  
 9170.18  9219.86  9261.00  9328.84  9394.88  9450.43  9497.07  9574.00  9653.53  9728.49  
 9787.09  9874.34  9969.47  10060.51 10128.90 10220.47 10325.70 10423.96 10498.06 10592.59 
 10702.85 10806.62 10879.78 10966.37 11062.33 11151.28 11211.69 11273.04 11357.43 11429.09 
 11474.09 11516.02 11583.42 11636.49 11666.81 11693.51 11745.69 11770.13 11762.86 11730.11 
 11705.90 11657.19 11580.11 11462.12 11339.03 11195.39 11004.23 10738.89 10392.35 9939.00  
 9421.27  8776.38  8035.83  7171.54  6111.34  4945.02  3785.37  2775.14  1906.40  1258.55  
 1004.60  754.98   653.90   558.26   453.49   272.61   142.44   83.38    25.17    8.36     
 0.00     0.00     0.00     0.00     0.00     0.00     0.00     0.00     0.00     0.00     
 0.00     0.00     0.00     0.00     0.00     0.00     0.00     0.00     0.00     0.00     
 0.00     0.00     0.00     0.00     0.00     0.00     0.00     0.00     0.00     0.00     
 0.00     0.00     0.00     0.00     0.00     0.00     0.00     0.00     0.00     0.00     
 0.00     0.00     0.00     0.00     0.00     0.00     0.00     0.00     0.00     0.00     
 0.00     0.00     0.00     0.00     0.00     0.00     0.00     0.00     0.00     0.00     
 0.00     0.00     0.00     0.00     0.00     0.00     0.00     0.00     0.00     0.00     
 0.00     0.00     0.00     0.00     0.00     0.00     0.00     0.00     0.00     0.00     
 0.00     0.00     0.00     0.00     0.00     0.00     0.00     0.00     0.00     0.00     
 0.00     
