IESNA:LM-63-2002
[TEST] 1
[TESTLAB] AOK
[TESTDATE] 2022-05-27
[ISSUEDATE] 2022-05-27 08:25:12
[NEARFIELD] 
[LAMPPOSITION] 0,0
[OTHER] EVERFINE GO-2000A_V1 SYSTEM
[MANUFAC] AOK
[LUMCAT] A
[LUMINAIRE] AOK-600WiSF-NV-S5-00-5070-15D-
[LAMPCAT] B
[LAMP] 5050
[BALLAST] E
[BALLASTCAT] F
[OTHER] 
[OTHER] Gamma(deg)    Fz(lm)      Ft(lm)     %Lum    %Lamp
[OTHER]   0- 10     33496.41    33496.41    46.89    46.89
[OTHER]  10- 20     17024.92    50521.33    70.72    70.72
[OTHER]  20- 30      6466.75    56988.08    79.77    79.77
[OTHER]  30- 40      4349.13    61337.21    85.86    85.86
[OTHER]  40- 50      3493.59    64830.80    90.75    90.75
[OTHER]  50- 60      2716.69    67547.49    94.55    94.55
[OTHER]  60- 70      1832.75    69380.24    97.12    97.12
[OTHER]  70- 80       927.21    70307.45    98.42    98.42
[OTHER]  80- 90       354.91    70662.36    98.91    98.91
[OTHER]  90-100       175.58    70837.95    99.16    99.16
[OTHER] 100-110       141.21    70979.15    99.36    99.36
[OTHER] 110-120       126.36    71105.51    99.53    99.53
[OTHER] 120-130        98.05    71203.56    99.67    99.67
[OTHER] 130-140        68.20    71271.75    99.77    99.77
[OTHER] 140-150        48.61    71320.37    99.84    99.84
[OTHER] 150-160        53.65    71374.02    99.91    99.91
[OTHER] 160-170        48.44    71422.46    99.98    99.98
[OTHER] 170-180        15.61    71438.07   100.00   100.00
[OTHER] 
TILT=NONE
1 71438 1 181 25 1 2 0.150 0.200 0.000
1.000 1 593.033
0.0    1.0    2.0    3.0    4.0    5.0    6.0    7.0    8.0    9.0    
 10.0   11.0   12.0   13.0   14.0   15.0   16.0   17.0   18.0   19.0   
 20.0   21.0   22.0   23.0   24.0   25.0   26.0   27.0   28.0   29.0   
 30.0   31.0   32.0   33.0   34.0   35.0   36.0   37.0   38.0   39.0   
 40.0   41.0   42.0   43.0   44.0   45.0   46.0   47.0   48.0   49.0   
 50.0   51.0   52.0   53.0   54.0   55.0   56.0   57.0   58.0   59.0   
 60.0   61.0   62.0   63.0   64.0   65.0   66.0   67.0   68.0   69.0   
 70.0   71.0   72.0   73.0   74.0   75.0   76.0   77.0   78.0   79.0   
 80.0   81.0   82.0   83.0   84.0   85.0   86.0   87.0   88.0   89.0   
 90.0   91.0   92.0   93.0   94.0   95.0   96.0   97.0   98.0   99.0   
 100.0  101.0  102.0  103.0  104.0  105.0  106.0  107.0  108.0  109.0  
 110.0  111.0  112.0  113.0  114.0  115.0  116.0  117.0  118.0  119.0  
 120.0  121.0  122.0  123.0  124.0  125.0  126.0  127.0  128.0  129.0  
 130.0  131.0  132.0  133.0  134.0  135.0  136.0  137.0  138.0  139.0  
 140.0  141.0  142.0  143.0  144.0  145.0  146.0  147.0  148.0  149.0  
 150.0  151.0  152.0  153.0  154.0  155.0  156.0  157.0  158.0  159.0  
 160.0  161.0  162.0  163.0  164.0  165.0  166.0  167.0  168.0  169.0  
 170.0  171.0  172.0  173.0  174.0  175.0  176.0  177.0  178.0  179.0  
 180.0  
0.0    15.0   30.0   45.0   60.0   75.0   90.0   105.0  120.0  135.0  
 150.0  165.0  180.0  195.0  210.0  225.0  240.0  255.0  270.0  285.0  
 300.0  315.0  330.0  345.0  360.0  
554460.88 553122.63 547996.62 532125.72 452858.56 372634.53 289359.72 197992.64 139545.88 101812.86 
 64321.96 26831.06 13598.25 636.41   350.19   199.24   48.30    35.14    27.30    22.15    
 18.88    16.61    14.64    13.25    12.05    10.89    9.89     9.61     9.38     10.05    
 10.37    9.71     8.69     7.77     7.41     7.22     7.17     6.87     6.83     6.40     
 6.22     6.07     5.89     5.47     5.27     5.23     5.16     4.99     4.70     4.52     
 4.43     4.38     4.38     4.25     4.24     4.17     4.02     3.93     3.88     3.75     
 3.65     3.59     3.57     3.49     3.39     3.33     3.29     3.25     3.21     3.19     
 3.16     3.14     3.12     3.10     3.06     3.05     3.03     3.02     3.02     3.02     
 3.02     3.06     3.19     3.37     3.48     3.57     3.67     3.72     3.78     3.80     
 3.86     3.92     3.94     3.95     4.01     4.08     4.17     4.29     4.46     4.66     
 4.87     5.14     5.43     5.75     6.11     6.49     6.89     7.34     7.79     8.25     
 8.68     9.12     9.53     9.93     10.37    10.85    11.34    11.86    12.44    13.06    
 13.70    14.35    15.05    15.78    16.53    17.34    18.20    19.10    20.03    21.00    
 22.00    23.05    24.16    25.28    26.43    27.64    28.96    30.39    31.99    33.67    
 35.63    37.87    40.56    43.69    47.39    51.88    57.27    63.85    71.85    82.08    
 94.62    108.91   124.93   142.09   161.40   181.05   200.47   219.46   239.54   259.64   
 276.66   291.65   304.01   312.17   316.09   316.36   313.23   307.10   299.11   289.53   
 279.15   267.67   255.62   243.24   230.56   217.41   203.72   189.51   174.72   158.32   
 138.50   
554460.88 551916.98 546100.51 533811.87 472983.69 387210.59 304283.14 221355.71 138754.00 99558.55 
 59284.49 44664.72 30044.96 15425.19 933.87   728.04   569.29   372.55   255.60   139.33   
 114.46   87.89    74.32    65.43    49.82    37.72    25.46    19.99    16.71    14.44    
 12.86    11.49    9.73     7.98     7.05     6.41     6.13     6.14     6.62     6.93     
 6.88     6.81     6.72     6.58     6.36     6.20     6.05     5.89     5.67     5.51     
 5.34     5.15     4.95     4.81     4.64     4.51     4.41     4.28     4.13     4.03     
 3.97     3.85     3.77     3.68     3.55     3.44     3.35     3.27     3.18     3.06     
 2.96     2.86     2.78     2.71     2.64     2.58     2.53     2.50     2.49     2.49     
 2.50     2.51     2.55     2.60     2.66     2.73     2.80     2.88     2.98     3.07     
 3.16     3.24     3.34     3.44     3.57     3.70     3.85     4.03     4.22     4.44     
 4.68     4.95     5.24     5.55     5.87     6.21     6.59     6.98     7.39     7.81     
 8.28     8.75     9.22     9.68     10.18    10.69    11.26    11.85    12.45    13.07    
 13.73    14.42    15.16    15.92    16.67    17.49    18.35    19.25    20.21    21.23    
 22.25    23.32    24.43    25.55    26.72    27.99    29.34    30.84    32.49    34.30    
 36.44    38.84    41.60    44.86    48.69    53.23    58.70    65.45    73.67    84.15    
 96.43    110.88   128.28   145.70   164.72   184.07   204.08   223.64   243.07   261.60   
 278.89   294.18   305.92   313.88   317.34   317.14   313.76   307.68   299.48   290.13   
 279.72   268.65   257.10   245.14   233.06   220.87   207.09   191.67   174.27   156.42   
 138.50   
554460.88 550187.21 542598.66 527228.93 491036.08 399542.23 311549.51 228521.19 158564.31 120750.10 
 83317.15 45884.20 28645.72 17367.46 11954.19 6602.83  1251.48  862.09   535.88   400.42   
 299.45   228.63   178.06   135.43   111.40   87.58    75.59    65.18    55.52    46.62    
 40.60    35.31    30.51    27.06    24.09    20.38    17.24    15.65    14.68    14.05    
 13.64    12.96    12.44    11.85    11.12    10.33    9.63     9.01     8.12     7.47     
 6.73     5.86     5.40     5.26     5.15     5.03     4.81     4.57     4.31     4.04     
 3.87     3.74     3.61     3.47     3.33     3.18     3.06     2.96     2.86     2.79     
 2.73     2.66     2.61     2.55     2.50     2.45     2.40     2.37     2.35     2.34     
 2.35     2.37     2.42     2.48     2.54     2.62     2.71     2.79     2.90     3.00     
 3.13     3.27     3.42     3.58     3.75     3.93     4.11     4.30     4.52     4.74     
 4.96     5.20     5.48     5.74     6.04     6.36     6.70     7.06     7.45     7.83     
 8.25     8.70     9.16     9.63     10.12    10.63    11.15    11.71    12.29    12.90    
 13.55    14.18    14.88    15.59    16.31    17.06    17.88    18.73    19.60    20.52    
 21.48    22.50    23.57    24.76    26.04    27.40    28.95    30.63    32.56    34.68    
 37.01    39.73    42.84    46.42    50.49    55.44    61.44    68.73    77.50    88.42    
 101.38   115.85   131.65   148.75   167.92   187.64   206.93   225.93   245.97   266.02   
 282.21   295.18   305.19   311.68   314.30   313.68   310.11   304.09   296.55   287.50   
 277.59   266.97   255.37   243.54   231.53   218.65   203.87   187.87   171.73   156.03   
 138.50   
554460.88 549453.81 540255.33 522957.53 489889.09 436937.07 344175.74 267092.81 190173.62 135221.53 
 99441.86 66166.96 52015.60 39235.19 26454.78 13757.20 10018.33 5673.91  1369.26  1047.24  
 771.47   544.64   377.17   301.57   225.97   150.71   114.13   91.61    77.58    67.26    
 59.04    51.92    46.20    41.46    37.54    34.20    31.25    28.54    26.19    23.81    
 20.87    17.68    15.50    14.14    13.21    12.41    11.67    11.02    10.46    9.82     
 9.11     8.47     7.86     7.38     6.95     6.59     6.28     5.98     5.70     5.43     
 5.15     4.91     4.70     4.51     4.32     4.14     3.95     3.75     3.53     3.34     
 3.16     2.97     2.82     2.67     2.54     2.44     2.34     2.23     2.14     2.11     
 2.12     2.14     2.18     2.25     2.32     2.41     2.50     2.59     2.71     2.83     
 2.97     3.11     3.27     3.42     3.60     3.78     3.97     4.18     4.39     4.64     
 4.90     5.15     5.43     5.71     6.02     6.33     6.68     7.03     7.39     7.75     
 8.14     8.56     8.99     9.41     9.82     10.30    10.81    11.32    11.81    12.33    
 12.87    13.43    14.01    14.61    15.21    15.84    16.50    17.22    17.98    18.75    
 19.61    20.55    21.60    22.68    23.91    25.25    26.79    28.49    30.39    32.52    
 34.95    37.76    40.86    44.54    48.87    54.10    60.36    67.90    76.90    87.76    
 100.08   115.30   130.54   147.79   166.28   185.44   204.99   224.19   242.89   259.94   
 274.76   287.18   296.39   302.72   305.76   305.96   303.41   298.50   291.91   283.77   
 274.61   264.29   253.40   242.14   230.00   216.97   203.14   188.69   174.35   161.02   
 138.50   
554460.88 547709.04 535061.08 511545.65 469769.90 411146.88 343988.66 277086.58 213328.64 155930.00 
 117252.40 92583.85 68072.79 53483.53 42072.05 29121.96 22753.80 18698.88 12195.68 9726.83  
 7307.72  4338.13  3238.17  1379.83  989.88   616.16   471.74   356.48   258.25   196.38   
 159.21   134.58   116.35   98.19    85.42    73.48    63.55    55.25    48.25    42.78    
 37.99    34.21    31.03    28.13    25.55    23.49    21.46    19.34    17.59    15.11    
 12.87    11.47    10.65    9.99     9.44     8.97     8.59     8.24     7.93     7.64     
 7.37     7.14     6.91     6.69     6.51     6.35     6.19     6.05     5.89     5.71     
 5.52     5.26     5.00     4.68     4.34     4.01     3.66     3.33     3.00     2.62     
 2.41     2.37     2.38     2.43     2.50     2.58     2.67     2.77     2.89     3.00     
 3.15     3.29     3.46     3.63     3.82     4.02     4.23     4.47     4.71     4.97     
 5.23     5.51     5.80     6.11     6.43     6.75     7.08     7.43     7.79     8.15     
 8.54     8.93     9.34     9.74     10.17    10.62    11.08    11.54    12.03    12.53    
 13.03    13.53    14.04    14.57    15.11    15.66    16.25    16.86    17.50    18.15    
 18.85    19.63    20.47    21.41    22.43    23.55    24.90    26.44    28.18    30.22    
 32.48    35.14    38.30    42.14    46.74    52.27    58.94    67.04    76.81    87.90    
 100.64   114.78   130.50   147.45   165.34   183.37   201.37   218.89   234.85   250.06   
 265.27   276.38   285.13   291.51   295.10   296.07   294.67   291.06   285.39   278.43   
 270.88   262.23   252.07   241.53   230.21   218.13   205.61   193.12   180.81   168.94   
 138.50   
554460.88 547233.95 534074.17 509019.14 466289.06 406852.85 339773.14 283740.18 227707.16 171826.70 
 135702.73 109447.73 89660.33 73400.32 59911.57 49087.15 39351.65 30602.73 25894.96 21194.86 
 17530.83 14223.19 11044.78 9071.27  7602.07  6282.34  5105.20  4250.33  3647.49  3144.48  
 2698.84  2253.97  1910.48  1632.82  1383.65  1121.81  906.75   721.89   555.23   424.18   
 332.34   277.81   223.28   168.93   136.96   111.90   91.44    75.68    63.88    54.55    
 47.85    42.27    37.21    33.30    30.04    27.25    24.91    23.03    21.54    20.05    
 18.84    17.62    16.23    15.07    13.75    13.19    12.92    12.70    12.58    12.47    
 12.33    12.17    11.94    11.81    11.62    11.35    10.94    10.13    9.05     7.52     
 5.81     3.04     1.99     2.01     2.07     2.13     2.21     2.28     2.37     2.47     
 2.58     2.70     2.83     2.99     3.15     3.32     3.50     3.69     3.91     4.13     
 4.37     4.61     4.87     5.14     5.43     5.71     6.02     6.34     6.68     7.02     
 7.38     7.75     8.14     8.53     8.92     9.32     9.74     10.19    10.63    11.08    
 11.54    12.02    12.52    13.03    13.52    14.02    14.53    15.06    15.59    16.12    
 16.69    17.28    17.94    18.65    19.46    20.40    21.51    22.77    24.24    25.98    
 28.12    30.62    33.63    37.35    41.88    47.55    54.30    62.55    72.04    83.27    
 95.69    109.66   125.42   141.20   157.92   174.86   192.01   208.06   223.83   238.15   
 250.96   262.35   271.71   279.56   285.11   288.68   290.78   290.48   286.32   281.76   
 275.78   269.35   260.72   251.03   240.80   229.21   217.57   204.74   191.91   179.27   
 138.50   
554460.88 547835.31 536071.88 512638.14 471149.77 411297.36 345292.36 287772.84 230253.33 172945.06 
 135774.34 108656.04 88731.70 73163.83 60291.05 50056.37 41843.65 35195.56 29848.08 26015.06 
 22182.03 18360.70 15633.81 13313.24 11427.94 10038.15 9062.15  8300.40  7727.08  7257.46  
 6855.69  6481.91  6110.79  5771.25  5486.48  5182.90  4894.00  4635.49  4395.53  4153.29  
 3914.94  3678.93  3457.92  3287.77  3128.70  2955.50  2764.25  2587.13  2410.12  2243.34  
 2081.51  1925.22  1770.44  1625.36  1476.20  1337.09  1201.13  1076.00  953.40   844.32   
 744.33   648.77   558.04   474.40   395.06   320.67   264.71   208.76   153.02   115.98   
 84.57    61.40    43.74    29.01    16.34    7.17     3.41     2.61     2.41     1.91     
 1.63     1.53     1.45     1.38     1.33     1.28     1.23     1.16     1.03     0.92     
 0.85     0.75     0.68     0.68     0.69     0.71     0.72     0.74     0.77     0.80     
 0.83     0.87     0.90     0.94     0.98     1.03     1.08     1.13     1.19     1.24     
 1.30     1.34     1.40     1.45     1.52     1.57     1.63     1.70     1.77     1.85     
 1.91     1.99     2.07     2.15     2.23     2.31     2.39     2.49     2.58     2.68     
 2.79     2.91     3.04     3.19     3.36     3.55     3.76     4.03     4.33     4.69     
 5.14     5.69     6.33     7.13     8.07     9.23     10.51    11.92    13.48    15.23    
 17.13    19.15    21.30    23.64    26.09    28.58    31.20    33.83    36.45    39.07    
 41.64    44.21    46.79    49.29    51.81    54.29    56.77    59.40    62.08    65.73    
 69.14    72.98    77.74    83.65    90.85    99.40    109.47   121.12   133.99   148.06   
 138.50   
554460.88 547541.06 535159.25 511560.18 471495.12 416076.91 352090.83 287713.67 230104.23 181100.60 
 143452.01 115835.95 97719.97 79682.77 66849.13 56571.00 48548.58 41888.62 36306.51 31438.13 
 27218.46 23489.24 20364.44 17410.29 15107.96 13315.23 11953.91 11188.53 10427.55 9666.56  
 9190.27  8795.80  8462.10  8155.45  7899.35  7670.98  7468.21  7256.65  7050.67  6855.07  
 6667.37  6463.38  6272.09  6088.72  5915.95  5737.42  5541.68  5359.06  5195.67  5047.66  
 4911.06  4769.90  4630.25  4485.54  4344.69  4196.85  4044.66  3896.73  3750.39  3598.60  
 3444.04  3297.27  3155.62  3015.18  2863.07  2706.95  2545.72  2394.20  2241.20  2088.97  
 1945.72  1802.15  1658.58  1511.11  1371.40  1241.50  1128.81  1016.27  903.74   808.98   
 724.03   651.39   583.26   525.78   476.11   432.56   396.54   365.24   340.45   314.58   
 288.58   267.07   254.55   244.41   227.94   211.81   197.98   184.85   173.44   162.21   
 152.08   143.72   135.72   128.68   121.84   114.99   109.26   104.37   98.95    93.46    
 88.49    83.64    78.32    73.15    68.40    63.63    59.14    54.97    50.72    46.54    
 42.63    38.90    35.01    30.89    26.61    22.71    18.82    15.13    11.70    7.90     
 5.97     4.46     3.18     2.40     2.22     2.24     2.38     2.55     2.75     3.00     
 3.31     3.70     4.20     4.80     5.60     6.59     7.72     8.98     10.47    12.13    
 13.93    15.85    17.91    20.16    22.47    24.83    27.26    29.64    32.03    34.30    
 36.47    38.60    40.60    42.57    44.44    46.30    48.21    50.24    52.50    55.44    
 58.28    61.49    65.52    70.75    77.38    85.39    95.59    107.81   121.05   135.80   
 138.50   
554460.88 548868.50 538322.20 519361.07 486236.72 438613.89 380623.49 319150.56 262371.50 205748.35 
 164030.98 133839.96 111404.81 94274.25 80428.93 69504.45 60977.06 53899.66 47661.39 42346.09 
 37467.58 32960.45 28929.96 25474.19 22028.41 19455.75 17196.25 15333.70 13793.31 12584.79 
 11612.51 10830.45 10245.60 9825.53  9534.61  9298.16  9075.70  8847.01  8620.51  8414.02  
 8215.82  8024.86  7843.93  7660.91  7466.61  7275.70  7074.28  6876.44  6683.75  6497.80  
 6320.17  6153.08  5985.52  5812.07  5627.19  5441.21  5261.05  5077.64  4883.34  4692.89  
 4498.04  4294.31  4098.43  3906.50  3717.78  3527.05  3341.77  3154.44  2958.36  2748.72  
 2548.91  2349.28  2165.29  1984.14  1808.18  1643.92  1483.89  1341.01  1199.84  1075.87  
 959.72   861.75   773.41   698.80   639.96   589.81   549.29   511.18   481.20   450.98   
 422.08   395.59   373.20   355.99   340.69   325.87   312.64   299.22   287.40   276.98   
 266.15   257.19   249.11   241.59   234.20   226.82   220.57   215.29   210.66   206.03   
 201.71   197.65   193.84   190.12   186.36   182.87   179.15   175.62   171.94   168.29   
 164.72   160.91   156.88   152.67   148.39   143.71   139.24   134.67   129.95   125.16   
 120.29   115.43   110.56   105.49   100.49   95.10    89.33    83.65    78.23    72.56    
 66.64    61.26    55.92    50.46    44.95    41.07    32.52    14.62    11.15    9.84     
 10.94    12.81    14.92    17.26    19.73    22.35    25.07    27.80    30.58    33.34    
 36.03    38.54    40.93    43.25    45.44    47.43    49.15    50.84    52.41    54.02    
 55.95    58.38    61.97    65.95    70.79    78.08    87.48    99.22    112.71   127.73   
 138.50   
554460.88 549414.89 539281.07 522207.02 494551.95 453786.03 400326.53 340984.06 281508.38 226664.58 
 181052.63 147362.50 122851.72 108180.87 93589.32 78997.77 70473.69 63320.06 56957.18 50765.14 
 45356.50 40207.92 35719.31 31360.96 27650.02 24481.81 21855.45 19512.36 17444.82 15741.57 
 14255.70 13048.03 12091.89 11555.89 11023.54 10491.19 10117.84 9780.11  9474.29  9211.22  
 8979.31  8755.98  8537.07  8326.88  8132.14  7935.18  7747.27  7561.41  7378.34  7181.46  
 6988.16  6795.15  6604.12  6419.41  6241.47  6045.83  5833.86  5616.63  5399.74  5182.07  
 4954.52  4735.00  4512.97  4282.64  4051.83  3831.27  3615.54  3396.30  3177.03  2951.45  
 2734.89  2531.83  2331.01  2128.08  1937.73  1757.76  1581.04  1415.00  1266.42  1148.61  
 1031.07  913.53   821.47   743.94   680.94   629.21   579.45   536.88   505.59   477.33   
 447.94   418.25   394.85   373.67   357.23   345.10   336.71   329.59   322.31   314.60   
 307.27   300.66   294.96   289.73   285.05   281.40   278.28   275.53   272.96   270.35   
 267.78   265.25   263.32   261.77   260.06   258.52   256.85   254.80   252.91   251.24   
 249.35   247.34   244.61   240.89   237.03   233.05   228.89   224.19   219.19   214.30   
 209.55   204.45   199.44   194.13   188.31   182.69   176.82   170.83   164.57   157.98   
 151.18   144.88   138.80   132.58   126.46   118.75   111.03   103.06   96.23    90.65    
 83.37    76.92    70.01    66.54    63.31    50.71    31.35    30.43    31.79    33.71    
 35.63    37.65    40.48    43.51    46.47    49.37    51.92    53.98    55.72    57.17    
 58.49    59.81    61.41    63.83    67.49    73.05    81.31    92.02    104.81   119.72   
 138.50   
554460.88 550811.72 542844.28 530170.04 509657.65 477876.07 432516.42 376568.09 314677.81 258858.96 
 203219.41 164295.93 135731.92 114147.11 97707.66 84732.86 74570.48 66283.59 58996.97 52678.70 
 46992.95 41685.44 36629.40 32391.55 28586.76 26061.83 23536.90 21022.49 19372.58 18070.53 
 16915.07 15894.99 14994.82 14217.81 13569.86 12975.60 12431.54 11877.29 11432.45 11028.21 
 10640.23 10286.04 9968.70  9663.04  9373.79  9098.20  8839.22  8576.63  8310.05  8040.82  
 7782.81  7535.06  7283.97  7019.76  6756.95  6506.41  6253.87  6000.44  5736.98  5464.42  
 5226.04  4997.07  4760.51  4518.48  4281.82  4043.26  3798.84  3561.96  3326.70  3093.54  
 2871.10  2651.04  2431.04  2215.80  2012.90  1827.80  1651.28  1485.69  1328.20  1192.72  
 1071.91  963.81   867.24   786.85   717.65   660.17   606.99   558.62   523.88   493.22   
 464.14   432.50   403.51   379.51   358.90   342.93   330.29   322.03   322.17   327.98   
 331.56   330.95   329.96   329.36   329.24   329.63   330.67   332.10   333.92   335.68   
 337.59   340.22   342.51   344.88   347.07   348.56   348.73   348.12   347.16   345.46   
 342.16   336.59   329.98   322.95   316.48   309.87   303.14   296.28   289.64   283.25   
 276.78   270.54   264.37   258.19   251.72   244.84   236.71   228.58   220.65   212.05   
 203.21   193.85   186.25   178.50   171.50   164.53   158.41   151.89   145.84   140.62   
 134.21   128.67   118.26   111.67   108.52   102.70   94.73    89.59    85.38    79.00    
 44.49    39.42    41.45    43.68    47.24    50.52    54.05    57.35    60.18    62.37    
 63.96    65.20    66.24    67.44    69.42    72.87    78.79    87.64    99.37    113.82   
 138.50   
554460.88 551365.78 544204.14 533797.67 517772.97 492055.23 450642.84 394626.97 329087.77 265203.34 
 210684.34 169879.64 139458.16 115386.66 99589.19 83856.48 73212.61 64882.94 57608.25 51332.68 
 45944.99 41167.04 36830.00 33039.32 30061.32 27719.96 26104.91 24863.51 23708.47 22621.51 
 21574.76 20528.39 19620.55 18757.51 17906.73 17107.55 16273.14 15454.29 14685.22 13957.94 
 13290.40 12714.42 12159.10 11661.67 11164.76 10667.86 10217.65 9795.95  9401.00  9010.26  
 8626.24  8264.47  7924.17  7600.52  7273.42  6928.62  6524.67  6150.31  5841.27  5545.21  
 5272.15  5010.03  4764.11  4513.94  4269.35  4032.43  3801.60  3581.25  3365.02  3139.98  
 2908.04  2684.09  2449.58  2231.19  2026.20  1842.19  1668.00  1498.32  1347.55  1212.99  
 1100.40  987.98   892.08   807.93   738.21   678.96   624.17   574.69   538.30   505.93   
 476.04   441.04   410.49   380.37   357.47   336.81   321.54   309.70   301.04   300.40   
 310.76   326.67   341.24   355.45   367.98   378.02   386.64   394.41   401.21   407.50   
 413.99   420.53   426.81   433.95   439.45   442.18   441.98   439.65   434.84   428.40   
 420.61   411.30   400.50   389.73   378.79   367.77   356.82   346.40   336.66   327.63   
 319.17   311.06   302.52   294.45   287.16   271.07   259.35   253.37   247.31   240.82   
 234.82   227.64   220.27   212.00   204.06   196.43   188.37   181.04   173.59   165.40   
 159.02   153.97   149.09   142.48   135.85   129.68   123.52   119.86   114.47   101.67   
 97.01    90.18    49.15    47.75    51.39    54.70    57.99    61.83    65.39    68.46    
 70.88    72.49    73.60    74.35    75.43    77.94    82.85    91.02    102.84   118.35   
 138.50   
554460.88 552684.39 547287.61 539418.92 528265.72 509232.49 475175.85 422668.91 358279.11 299476.86 
 240674.63 182135.13 147470.25 120639.47 100851.83 86283.79 74837.04 66056.83 58953.48 53090.82 
 48219.79 43874.22 40143.20 36785.10 34313.21 32603.71 31300.01 30262.35 29468.60 28741.84 
 27955.65 26990.20 25884.46 24725.73 23566.54 22366.00 21126.96 19846.86 18649.70 17561.56 
 16535.11 15596.75 14733.45 13978.08 13325.90 12712.20 12102.66 11468.76 10860.86 10264.10 
 9720.85  9225.03  8775.37  8335.66  7884.00  7485.01  6867.50  6283.70  5963.11  5711.54  
 5451.53  5195.38  4924.57  4644.25  4378.76  4110.67  3856.00  3608.72  3370.41  3139.45  
 2913.75  2689.43  2465.23  2251.27  2058.20  1876.46  1704.88  1539.55  1388.89  1253.75  
 1131.16  1018.03  917.13   831.35   758.55   693.75   636.10   582.59   543.36   508.53   
 476.70   444.59   411.15   379.03   352.32   330.52   311.83   298.04   286.53   278.62   
 280.39   295.47   321.19   347.16   369.18   387.95   405.06   420.65   432.90   442.41   
 446.91   447.51   446.53   444.85   442.38   439.38   435.80   430.90   425.08   418.18   
 409.49   400.68   391.26   381.75   372.63   363.00   353.99   345.75   337.70   329.91   
 322.30   314.79   307.35   299.78   292.17   284.99   277.50   258.37   252.31   247.05   
 240.24   233.43   226.95   220.06   213.42   206.32   199.29   192.42   185.39   178.45   
 171.33   165.07   159.82   155.44   150.95   146.52   137.48   129.70   127.03   117.65   
 104.48   98.57    88.85    52.93    55.75    59.08    63.09    67.32    71.41    75.20    
 78.32    80.69    82.31    83.18    83.61    84.78    87.93    94.19    105.00   120.49   
 138.50   
554460.88 553112.99 548552.36 541871.95 532597.10 515693.55 483054.08 432250.38 369170.26 298817.63 
 235077.88 186487.33 150947.03 123687.57 105617.27 87618.80 76040.51 67192.89 59974.58 53715.95 
 48434.74 43817.64 39829.60 36313.49 33420.81 31474.75 30155.96 29214.85 28518.92 27953.93 
 27346.01 26560.85 25621.32 24604.02 23493.57 22346.12 21081.70 19776.10 18566.06 17433.77 
 16390.61 15372.41 14466.96 13618.83 12891.81 12226.17 11611.29 10996.84 10447.05 9934.08  
 9467.55  9046.91  8632.02  8224.92  7886.74  7615.62  7196.31  6600.39  6167.76  5840.90  
 5563.01  5294.79  5044.24  4772.27  4512.31  4267.14  4031.47  3802.81  3575.44  3332.99  
 3087.15  2850.67  2615.72  2389.51  2177.23  1987.07  1804.05  1626.79  1469.97  1328.00  
 1214.70  1096.62  978.50   885.69   806.55   740.29   680.95   625.15   581.09   545.56   
 513.30   478.27   445.19   412.34   385.08   360.73   340.51   325.89   312.38   303.84   
 305.91   321.11   341.96   360.26   372.75   380.31   383.61   384.17   383.25   382.28   
 381.35   380.20   379.27   378.47   376.84   373.88   369.73   364.40   358.08   350.96   
 344.31   338.07   331.17   324.53   318.24   311.91   305.67   300.00   294.00   288.15   
 282.31   276.20   270.36   264.47   258.28   251.95   239.60   233.58   228.57   223.74   
 219.02   213.84   208.00   202.47   196.41   190.87   185.86   180.25   174.67   168.70   
 163.16   158.56   153.65   148.13   140.49   134.54   129.75   124.96   113.17   102.38   
 100.98   89.17    56.88    56.15    59.49    63.80    68.64    73.43    77.88    81.78    
 85.10    87.80    89.83    91.18    92.28    93.45    96.11    101.31   109.58   121.76   
 138.50   
554460.88 554383.04 551014.13 545397.60 537086.91 522399.09 493458.59 448668.66 389234.14 322760.48 
 262285.64 202040.40 162694.49 133569.59 111556.12 94957.57 82016.16 72204.30 63894.29 56935.67 
 50872.98 45532.18 40590.63 36042.77 32111.66 28922.91 26536.77 24931.79 23333.32 22258.35 
 21318.91 20422.72 19489.82 18603.38 17855.61 17159.04 16368.77 15596.83 14822.27 14100.40 
 13418.01 12824.88 12268.72 11766.83 11256.66 10774.74 10335.51 9949.96  9580.58  9198.60  
 8820.30  8476.90  8150.72  7831.13  7514.37  7198.65  6903.60  6630.94  6351.32  6033.77  
 5720.85  5453.92  5209.33  4957.65  4693.21  4426.37  4155.59  3898.68  3640.29  3394.78  
 3168.93  2948.74  2723.10  2497.54  2278.90  2084.76  1889.75  1708.98  1543.16  1392.66  
 1255.39  1129.47  1015.49  915.88   830.24   755.08   693.20   637.83   590.68   554.19   
 522.84   492.05   459.34   428.18   401.50   378.11   358.24   342.53   329.77   326.14   
 332.32   338.53   339.29   336.75   333.51   330.58   328.08   325.19   322.03   318.57   
 315.01   311.72   308.57   305.82   303.33   301.02   298.56   295.50   292.70   289.85   
 286.60   282.77   278.45   273.48   268.76   263.96   259.25   254.49   249.63   244.11   
 238.59   233.90   228.80   224.26   219.53   214.68   210.16   205.22   200.52   195.59   
 189.73   183.06   176.39   168.97   162.47   156.93   152.31   147.88   143.74   141.18   
 136.73   131.90   123.53   117.57   113.19   107.73   102.78   95.73    87.67    80.70    
 55.39    50.89    54.00    57.91    62.91    68.31    73.58    78.68    83.36    87.55    
 91.41    94.96    97.82    100.19   102.20   104.01   106.96   111.73   118.73   128.22   
 138.50   
554460.88 554946.40 552079.76 546436.74 537415.12 521453.30 492766.54 449867.61 393671.36 327700.02 
 263418.08 209293.25 167420.45 136968.14 119811.78 102759.40 85707.01 75580.03 66997.91 59507.18 
 53047.50 47355.97 42038.60 37164.58 32617.39 28715.23 25537.48 22893.89 20626.05 18789.41 
 17279.64 15998.90 14889.74 13996.07 13269.82 12666.13 12172.53 11753.85 11335.74 10987.03 
 10655.38 10322.66 10016.10 9739.25  9483.53  9243.96  8991.42  8738.37  8489.00  8244.57  
 7996.35  7749.47  7508.33  7273.38  7041.35  6804.03  6556.43  6305.87  6046.69  5780.07  
 5522.81  5270.82  5025.13  4781.55  4530.62  4287.81  4058.98  3830.28  3601.58  3367.97  
 3130.62  2912.92  2698.41  2487.83  2283.83  2089.71  1898.96  1704.97  1535.91  1382.62  
 1245.84  1129.14  1012.60  909.31   820.33   744.90   680.88   626.66   580.32   544.27   
 513.47   483.42   453.73   423.69   398.58   377.85   361.94   350.87   344.34   338.07   
 330.35   322.79   314.66   307.45   300.65   294.65   289.23   283.90   278.83   274.34   
 270.24   266.33   262.42   258.07   254.28   250.99   247.92   244.86   241.53   238.51   
 235.66   232.77   229.75   226.77   223.53   219.71   215.72   211.36   207.24   203.37   
 199.15   194.62   190.13   185.51   180.84   176.44   171.64   166.54   161.47   156.40   
 150.69   144.38   137.90   131.94   125.13   118.32   112.12   103.90   97.06    90.19    
 83.74    78.32    71.73    68.04    65.31    61.34    36.67    35.94    38.26    41.76    
 45.97    51.23    56.87    62.63    68.03    73.26    78.10    82.46    86.41    90.04    
 93.82    97.79    101.36   104.60   107.12   110.02   114.54   120.62   127.97   136.92   
 138.50   
554460.88 556497.56 554871.24 549975.24 540971.49 525101.43 497448.32 457524.52 405064.31 344082.14 
 287709.09 231336.01 175205.32 140637.27 115292.28 97048.19 83448.44 72670.56 64049.78 56852.95 
 50594.09 44579.89 39217.85 34196.51 29761.12 26219.15 22687.03 19982.36 17674.30 15885.55 
 14483.67 13363.52 12437.67 11693.69 11114.93 10672.51 10302.66 9963.92  9668.38  9403.76  
 9165.91  8918.93  8708.94  8506.81  8314.06  8119.67  7924.76  7720.82  7510.75  7300.80  
 7100.55  6894.28  6694.59  6499.92  6306.01  6117.86  5934.18  5748.03  5560.62  5369.41  
 5167.17  4964.55  4763.03  4552.17  4343.83  4128.49  3922.05  3707.06  3494.90  3280.75  
 3071.15  2866.06  2663.50  2461.09  2271.17  2087.27  1902.92  1728.37  1564.97  1412.40  
 1269.26  1132.83  1013.64  907.99   821.93   744.09   677.53   618.87   572.93   535.65   
 506.11   478.03   449.68   425.13   402.55   386.41   373.79   360.75   345.82   331.03   
 317.81   305.82   294.90   284.37   274.61   265.73   257.79   250.67   243.14   235.63   
 230.06   224.81   219.82   215.07   210.17   205.65   201.40   197.19   193.24   189.20   
 185.28   181.11   176.97   172.70   168.00   163.58   158.96   153.98   148.60   143.55   
 138.49   133.05   127.67   122.05   116.49   110.62   104.63   98.84    93.14    87.36    
 81.25    74.69    68.37    61.84    55.71    49.58    43.91    37.25    18.21    13.28    
 12.62    14.01    16.51    19.39    22.64    26.28    30.30    34.69    39.44    44.50    
 49.74    55.11    60.46    65.80    70.98    75.93    80.48    84.81    88.79    92.51    
 96.04    100.05   104.13   108.12   111.62   116.01   121.91   128.82   137.09   146.49   
 138.50   
554460.88 557013.21 555866.91 550788.29 541453.71 524284.73 494564.56 451789.20 395713.13 331879.14 
 267211.95 210618.45 165032.08 130919.91 111114.02 91420.06 71726.10 60820.67 52045.06 44633.87 
 38544.22 33510.71 29016.76 24965.35 21323.55 18316.19 15933.05 14154.73 12781.24 12021.94 
 11268.58 10515.23 10027.33 9615.12  9263.42  8968.45  8714.69  8484.49  8275.84  8081.82  
 7918.86  7753.35  7590.26  7411.32  7232.64  7036.04  6806.70  6586.87  6364.68  6158.77  
 5960.05  5771.01  5593.05  5412.35  5237.32  5063.56  4892.66  4729.53  4566.87  4394.02  
 4220.69  4046.20  3880.17  3717.48  3546.69  3380.29  3217.20  3054.94  2882.11  2712.44  
 2541.17  2372.74  2206.42  2034.78  1870.41  1718.72  1577.74  1438.89  1301.68  1186.01  
 1070.52  955.03   853.60   760.53   682.98   615.19   556.50   502.64   455.75   417.95   
 388.07   364.36   339.17   316.33   300.58   293.24   283.23   268.50   253.29   239.40   
 225.03   213.37   202.53   191.04   180.68   172.00   163.45   155.13   147.78   141.05   
 134.59   128.46   122.32   116.19   110.11   104.14   98.48    93.04    87.47    82.21    
 77.22    72.43    67.40    62.40    57.80    53.02    48.28    43.36    38.56    33.73    
 27.58    21.26    14.87    10.47    8.37     6.63     5.31     4.77     4.80     5.12     
 5.51     5.94     6.46     7.05     7.79     8.71     9.80     11.10    12.69    14.51    
 16.57    18.89    21.54    24.46    27.70    31.15    35.00    39.11    43.53    48.06    
 52.69    57.44    62.17    66.98    71.75    76.44    81.10    85.63    90.13    94.39    
 98.51    102.68   107.11   111.52   116.20   121.84   128.47   136.23   144.95   154.90   
 138.50   
554460.88 557131.69 556089.58 551604.88 542341.96 525425.47 492856.73 443068.73 379555.50 311677.49 
 247034.11 191597.78 147500.66 113963.63 92429.12 71021.49 57423.05 46860.20 38619.23 32401.71 
 27421.86 23448.79 20101.92 17178.30 14671.81 12593.87 11384.13 10183.45 8982.76  8367.94  
 7866.41  7433.86  7056.29  6734.69  6437.33  6174.32  5921.75  5706.08  5491.38  5281.91  
 5092.22  4914.37  4715.40  4526.61  4326.34  4152.25  3969.95  3792.19  3611.78  3431.34  
 3266.07  3107.85  2952.04  2798.57  2659.06  2520.88  2387.35  2262.78  2136.77  2005.31  
 1888.51  1769.48  1652.81  1541.19  1436.60  1330.93  1229.12  1134.15  1039.25  944.36   
 859.92   777.43   696.73   621.19   553.16   489.64   429.51   373.58   325.37   282.49   
 243.84   209.50   179.65   153.77   131.51   104.11   76.65    61.11    48.67    37.86    
 28.78    21.70    16.55    12.12    7.93     4.47     3.07     2.94     2.99     3.07     
 3.17     3.28     3.38     3.50     3.62     3.75     3.86     3.99     4.14     4.30     
 4.48     4.67     4.86     5.07     5.29     5.52     5.77     6.03     6.30     6.59     
 6.89     7.20     7.52     7.85     8.18     8.53     8.90     9.25     9.61     9.97     
 10.33    10.72    11.10    11.51    11.94    12.40    12.91    13.54    14.33    15.24    
 16.30    17.61    19.19    21.23    23.80    26.92    30.72    35.38    41.02    48.16    
 57.18    67.43    78.90    91.28    104.27   119.18   135.39   151.60   167.46   183.23   
 199.29   213.98   227.35   240.70   251.02   259.38   266.31   270.93   273.32   273.26   
 270.93   266.57   260.56   253.26   243.76   232.41   220.03   206.47   192.28   177.99   
 138.50   
554460.88 557651.16 556998.66 552761.50 543637.17 526090.68 492592.62 440374.32 373472.18 303114.23 
 243031.83 183088.23 140050.26 106209.32 79232.73 59835.67 46725.75 37821.52 30983.73 25592.78 
 20212.03 16167.19 13359.08 11080.17 9101.29  7400.36  5825.65  4838.85  4198.19  3690.44  
 3268.48  2916.58  2564.69  2213.67  1971.07  1761.17  1559.12  1356.49  1183.14  1012.74  
 857.58   715.98   603.46   496.68   409.59   330.93   276.25   221.57   167.09   135.42   
 112.41   92.67    79.00    68.35    59.14    50.53    44.87    40.23    36.47    33.31    
 30.58    28.22    26.26    24.79    23.51    22.39    21.18    19.86    18.72    18.04    
 17.87    17.87    18.11    18.45    18.61    18.76    19.09    19.20    19.30    19.07    
 18.04    16.17    12.69    7.96     2.88     1.96     1.98     2.04     2.10     2.18     
 2.26     2.36     2.46     2.58     2.70     2.85     2.99     3.15     3.31     3.49     
 3.68     3.86     4.06     4.26     4.48     4.71     4.94     5.18     5.42     5.66     
 5.94     6.21     6.50     6.78     7.08     7.39     7.72     8.07     8.42     8.76     
 9.12     9.50     9.88     10.27    10.65    11.02    11.41    11.81    12.20    12.60    
 13.01    13.43    13.90    14.41    14.97    15.59    16.32    17.18    18.18    19.33    
 20.75    22.43    24.36    26.73    29.50    32.95    37.08    42.22    48.34    55.97    
 64.74    75.06    86.57    99.48    114.24   129.00   144.80   160.55   176.68   192.43   
 207.37   221.29   233.77   244.93   254.19   261.82   267.57   271.36   273.04   272.30   
 269.49   264.56   257.77   249.28   239.32   228.12   215.27   200.74   185.28   169.81   
 138.50   
554460.88 557144.20 555668.30 550096.07 538807.43 517327.26 461107.17 384150.28 298427.10 229825.48 
 168945.41 120104.85 92185.95 64499.22 43754.07 34547.88 28174.68 18922.37 13954.90 11381.84 
 8318.88  5249.71  4063.20  1669.01  1314.73  983.01   651.29   489.37   379.68   281.26   
 218.64   183.19   157.19   137.55   121.69   105.88   90.06    79.56    70.69    62.60    
 55.70    49.39    44.46    40.28    36.64    33.35    30.87    28.24    25.99    23.64    
 21.30    18.48    15.90    13.53    12.03    11.01    10.12    9.51     9.08     8.77     
 8.53     8.35     8.10     7.85     7.67     7.60     7.47     7.32     7.21     7.10     
 7.02     6.89     6.71     6.55     6.37     6.09     5.67     5.17     4.66     4.10     
 3.46     2.84     2.47     2.38     2.37     2.41     2.48     2.56     2.66     2.76     
 2.87     2.99     3.14     3.30     3.48     3.67     3.86     4.07     4.29     4.52     
 4.76     5.00     5.26     5.52     5.79     6.07     6.36     6.66     6.97     7.28     
 7.59     7.93     8.27     8.62     8.98     9.34     9.73     10.12    10.51    10.90    
 11.30    11.71    12.12    12.55    12.96    13.38    13.83    14.29    14.75    15.24    
 15.73    16.28    16.90    17.58    18.34    19.19    20.17    21.26    22.56    24.03    
 25.65    27.57    29.81    32.52    35.73    39.49    43.94    49.46    56.21    64.10    
 73.36    84.14    96.35    109.90   124.88   140.56   156.62   173.51   189.86   205.75   
 220.55   233.86   247.16   256.73   264.24   269.59   273.01   274.35   273.78   271.59   
 267.40   261.55   254.04   245.27   234.91   222.77   209.18   193.89   177.78   161.71   
 138.50   
554460.88 556862.48 555250.33 548885.69 529031.16 465161.40 393742.20 322258.77 248253.92 174320.71 
 109935.89 82983.32 56543.93 36968.50 26035.35 15158.08 10332.42 5953.52  1615.04  1322.45  
 1008.61  717.18   539.45   402.26   320.67   239.09   157.87   117.46   96.28    81.83    
 71.06    62.23    55.20    50.41    46.07    42.22    38.78    34.77    31.82    29.05    
 26.19    23.18    20.26    17.54    15.50    13.81    12.64    11.53    10.70    10.07    
 9.53     8.96     8.35     7.79     7.32     6.92     6.55     6.25     5.97     5.66     
 5.41     5.20     5.00     4.82     4.65     4.49     4.28     4.14     4.03     3.93     
 3.82     3.69     3.53     3.38     3.24     3.11     2.97     2.83     2.72     2.60     
 2.56     2.55     2.58     2.60     2.66     2.72     2.79     2.86     2.94     3.04     
 3.14     3.23     3.35     3.48     3.65     3.80     3.98     4.17     4.37     4.59     
 4.82     5.05     5.30     5.55     5.84     6.12     6.42     6.74     7.06     7.39     
 7.75     8.12     8.50     8.88     9.27     9.66     10.08    10.51    10.93    11.36    
 11.80    12.26    12.74    13.22    13.71    14.21    14.73    15.27    15.83    16.42    
 17.07    17.75    18.54    19.37    20.36    21.40    22.59    23.94    25.42    27.09    
 29.02    31.23    33.67    36.55    39.85    43.84    48.53    54.18    60.91    69.27    
 78.84    90.13    102.86   118.29   133.72   150.57   168.48   186.39   204.42   221.59   
 237.38   251.37   263.05   272.57   279.23   283.44   284.88   284.05   280.69   275.37   
 268.63   260.74   252.29   242.16   230.67   217.88   203.43   187.53   170.87   154.45   
 138.50   
554460.88 555674.43 552594.80 543909.10 481471.84 410171.98 338008.36 256181.34 171458.72 124944.79 
 88856.56 52884.70 26867.43 16109.45 8694.47  1313.40  1166.26  849.49   529.62   469.65   
 361.30   267.91   207.97   172.61   146.32   119.74   93.16    84.80    75.51    63.72    
 52.97    44.15    38.24    33.77    30.08    26.12    22.74    19.36    16.91    15.52    
 14.55    13.71    12.88    12.43    11.92    11.45    10.75    10.29    9.85     9.03     
 8.23     7.55     6.65     5.93     5.51     5.39     5.22     5.06     4.88     4.68     
 4.49     4.30     4.11     3.94     3.77     3.63     3.48     3.35     3.22     3.10     
 2.99     2.90     2.82     2.75     2.68     2.63     2.58     2.53     2.50     2.50     
 2.49     2.50     2.53     2.58     2.63     2.70     2.78     2.86     2.95     3.04     
 3.14     3.26     3.39     3.52     3.67     3.84     4.02     4.20     4.41     4.63     
 4.84     5.08     5.34     5.60     5.90     6.20     6.52     6.86     7.21     7.58     
 7.97     8.38     8.80     9.23     9.67     10.13    10.60    11.08    11.57    12.05    
 12.57    13.10    13.65    14.22    14.79    15.38    16.01    16.66    17.32    17.99    
 18.72    19.53    20.43    21.42    22.45    23.68    25.08    26.63    28.32    30.22    
 32.31    34.68    37.43    40.52    44.04    48.27    53.33    59.33    66.44    75.26    
 85.98    98.29    112.03   126.89   143.16   161.31   179.84   198.67   218.01   236.13   
 254.23   268.64   280.16   288.49   293.79   295.90   295.12   291.82   286.28   279.01   
 270.09   259.88   248.45   237.14   224.93   211.27   196.74   180.96   164.95   148.22   
 138.50   
554460.88 554828.70 551407.91 540234.99 469174.11 389718.79 310332.17 230945.58 151754.79 98792.00 
 62296.40 41733.28 21170.16 784.99   754.28   758.48   565.78   389.65   282.33   227.34   
 172.09   82.37    50.29    34.98    28.53    23.98    20.81    18.58    17.13    16.36    
 15.76    14.99    13.94    12.53    10.58    9.12     8.19     7.43     6.72     6.24     
 5.95     5.77     5.71     5.60     5.47     5.32     5.14     4.99     4.81     4.56     
 4.40     4.32     4.12     3.97     3.85     3.73     3.56     3.42     3.32     3.26     
 3.20     3.16     3.09     3.03     2.98     2.92     2.86     2.80     2.75     2.70     
 2.66     2.60     2.56     2.53     2.49     2.46     2.44     2.44     2.45     2.45     
 2.46     2.48     2.51     2.54     2.58     2.62     2.67     2.73     2.80     2.87     
 2.94     3.02     3.11     3.22     3.35     3.49     3.64     3.81     4.00     4.21     
 4.44     4.69     4.96     5.26     5.56     5.90     6.27     6.65     7.05     7.47     
 7.91     8.38     8.85     9.33     9.83     10.35    10.89    11.45    12.00    12.54    
 13.12    13.72    14.35    14.99    15.65    16.32    17.05    17.81    18.59    19.39    
 20.24    21.15    22.13    23.17    24.30    25.54    26.91    28.43    30.09    31.91    
 34.01    36.39    39.04    42.13    45.69    49.92    54.97    61.07    68.55    77.91    
 88.92    102.19   118.16   134.14   152.23   170.85   190.38   209.82   229.52   248.38   
 266.24   282.03   294.46   303.53   308.56   310.05   308.24   303.34   296.36   287.67   
 277.90   266.73   254.74   241.96   228.97   215.49   201.10   186.09   169.96   153.43   
 138.50   
554460.88 553122.63 547996.62 532125.72 452858.56 372634.53 289359.72 197992.64 139545.88 101812.86 
 64321.96 26831.06 13598.25 636.41   350.19   199.24   48.30    35.14    27.30    22.15    
 18.88    16.61    14.64    13.25    12.05    10.89    9.89     9.61     9.38     10.05    
 10.37    9.71     8.69     7.77     7.41     7.22     7.17     6.87     6.83     6.40     
 6.22     6.07     5.89     5.47     5.27     5.23     5.16     4.99     4.70     4.52     
 4.43     4.38     4.38     4.25     4.24     4.17     4.02     3.93     3.88     3.75     
 3.65     3.59     3.57     3.49     3.39     3.33     3.29     3.25     3.21     3.19     
 3.16     3.14     3.12     3.10     3.06     3.05     3.03     3.02     3.02     3.02     
 3.02     3.06     3.19     3.37     3.48     3.57     3.67     3.72     3.78     3.80     
 3.86     3.92     3.94     3.95     4.01     4.08     4.17     4.29     4.46     4.66     
 4.87     5.14     5.43     5.75     6.11     6.49     6.89     7.34     7.79     8.25     
 8.68     9.12     9.53     9.93     10.37    10.85    11.34    11.86    12.44    13.06    
 13.70    14.35    15.05    15.78    16.53    17.34    18.20    19.10    20.03    21.00    
 22.00    23.05    24.16    25.28    26.43    27.64    28.96    30.39    31.99    33.67    
 35.63    37.87    40.56    43.69    47.39    51.88    57.27    63.85    71.85    82.08    
 94.62    108.91   124.93   142.09   161.40   181.05   200.47   219.46   239.54   259.64   
 276.66   291.65   304.01   312.17   316.09   316.36   313.23   307.10   299.11   289.53   
 279.15   267.67   255.62   243.24   230.56   217.41   203.72   189.51   174.72   158.32   
 138.50   
