IESNA:LM-63-2002
[TEST] 1
[TESTLAB] AOK
[TESTDATE] 2022-04-26
[ISSUEDATE] 2022-04-27 16:11:01
[NEARFIELD] 
[LAMPPOSITION] 0,0
[OTHER] EVERFINE GO-2000A_V1 SYSTEM
[MANUFAC] AOK
[LUMCAT] A
[LUMINAIRE] AOK-600WiSF-HVY-S5-00-5070-30D-P
[LAMPCAT] B
[LAMP] 5050
[BALLAST] E
[BALLASTCAT] F
[OTHER] 
[OTHER] Gamma(deg)    Fz(lm)      Ft(lm)     %Lum    %Lamp
[OTHER]   0- 10     16237.50    16237.50    19.75    19.75
[OTHER]  10- 20     24009.56    40247.06    48.96    48.96
[OTHER]  20- 30     14365.31    54612.37    66.43    66.43
[OTHER]  30- 40      9649.73    64262.10    78.17    78.17
[OTHER]  40- 50      6301.91    70564.01    85.84    85.84
[OTHER]  50- 60      3847.69    74411.70    90.52    90.52
[OTHER]  60- 70      2478.75    76890.45    93.53    93.53
[OTHER]  70- 80      1569.20    78459.65    95.44    95.44
[OTHER]  80- 90      1026.71    79486.36    96.69    96.69
[OTHER]  90-100       787.50    80273.86    97.65    97.65
[OTHER] 100-110       617.00    80890.86    98.40    98.40
[OTHER] 110-120       475.37    81366.23    98.98    98.98
[OTHER] 120-130       347.12    81713.35    99.40    99.40
[OTHER] 130-140       227.22    81940.57    99.68    99.68
[OTHER] 140-150       134.99    82075.56    99.84    99.84
[OTHER] 150-160        75.91    82151.46    99.93    99.93
[OTHER] 160-170        39.86    82191.33    99.98    99.98
[OTHER] 170-180        14.05    82205.37   100.00   100.00
[OTHER] 
TILT=NONE
1 82205 1 181 25 1 2 0.150 0.200 0.000
1.000 1 594.286
0.0    1.0    2.0    3.0    4.0    5.0    6.0    7.0    8.0    9.0    
 10.0   11.0   12.0   13.0   14.0   15.0   16.0   17.0   18.0   19.0   
 20.0   21.0   22.0   23.0   24.0   25.0   26.0   27.0   28.0   29.0   
 30.0   31.0   32.0   33.0   34.0   35.0   36.0   37.0   38.0   39.0   
 40.0   41.0   42.0   43.0   44.0   45.0   46.0   47.0   48.0   49.0   
 50.0   51.0   52.0   53.0   54.0   55.0   56.0   57.0   58.0   59.0   
 60.0   61.0   62.0   63.0   64.0   65.0   66.0   67.0   68.0   69.0   
 70.0   71.0   72.0   73.0   74.0   75.0   76.0   77.0   78.0   79.0   
 80.0   81.0   82.0   83.0   84.0   85.0   86.0   87.0   88.0   89.0   
 90.0   91.0   92.0   93.0   94.0   95.0   96.0   97.0   98.0   99.0   
 100.0  101.0  102.0  103.0  104.0  105.0  106.0  107.0  108.0  109.0  
 110.0  111.0  112.0  113.0  114.0  115.0  116.0  117.0  118.0  119.0  
 120.0  121.0  122.0  123.0  124.0  125.0  126.0  127.0  128.0  129.0  
 130.0  131.0  132.0  133.0  134.0  135.0  136.0  137.0  138.0  139.0  
 140.0  141.0  142.0  143.0  144.0  145.0  146.0  147.0  148.0  149.0  
 150.0  151.0  152.0  153.0  154.0  155.0  156.0  157.0  158.0  159.0  
 160.0  161.0  162.0  163.0  164.0  165.0  166.0  167.0  168.0  169.0  
 170.0  171.0  172.0  173.0  174.0  175.0  176.0  177.0  178.0  179.0  
 180.0  
0.0    15.0   30.0   45.0   60.0   75.0   90.0   105.0  120.0  135.0  
 150.0  165.0  180.0  195.0  210.0  225.0  240.0  255.0  270.0  285.0  
 300.0  315.0  330.0  345.0  360.0  
196120.94 195968.82 196027.16 190447.52 164231.88 147462.53 130110.54 102224.71 90780.23 62309.81 
 45343.14 29514.61 14926.79 352.69   114.17   78.15    42.63    30.44    22.17    19.04    
 17.18    16.14    15.14    13.97    12.94    11.66    10.69    9.92     9.30     8.76     
 8.19     7.36     6.87     6.71     6.70     6.69     6.62     6.54     6.53     6.53     
 6.47     6.36     6.29     6.23     6.19     6.17     6.12     6.10     6.10     6.09     
 6.10     6.11     6.11     6.08     6.03     6.00     5.98     5.96     5.96     5.95     
 5.95     5.94     5.89     5.85     5.80     5.76     5.73     5.69     5.64     5.59     
 5.57     5.55     5.53     5.52     5.52     5.51     5.51     5.51     5.50     5.52     
 5.55     5.62     5.70     5.79     5.90     6.01     6.14     6.28     6.44     6.59     
 6.77     6.96     7.16     7.39     7.63     7.89     8.15     8.43     8.73     9.03     
 9.35     9.68     10.06    10.47    10.90    11.36    11.84    12.34    12.91    13.51    
 14.17    14.88    15.64    16.43    17.28    18.18    19.13    20.10    21.14    22.24    
 23.40    24.65    25.96    27.35    28.81    30.30    32.01    33.85    35.79    37.85    
 39.96    42.24    44.70    47.33    50.11    53.14    56.35    59.85    63.62    67.73    
 72.25    77.34    83.01    89.20    95.88    103.04   110.64   118.89   127.59   136.41   
 145.55   154.61   163.52   172.39   180.91   188.99   196.68   204.04   210.86   217.41   
 223.44   228.89   233.34   236.50   238.26   238.51   237.34   234.66   230.92   225.91   
 220.24   213.98   207.42   200.77   194.03   186.85   179.30   171.16   162.08   152.12   
 140.26   
196120.94 195547.23 195526.17 195247.76 178832.06 159519.79 137821.37 119420.94 93636.97 82427.93 
 57051.02 40523.32 32990.29 25305.31 462.53   356.96   251.39   146.35   95.88    66.92    
 48.69    36.25    28.00    22.96    19.14    16.74    14.86    13.46    12.37    11.87    
 11.37    10.87    10.14    8.91     8.32     8.11     8.12     7.84     7.53     7.21     
 6.99     6.86     6.77     6.71     6.64     6.59     6.51     6.43     6.31     6.26     
 6.25     6.19     6.07     6.02     5.99     5.98     5.92     5.84     5.77     5.71     
 5.64     5.60     5.56     5.53     5.48     5.41     5.35     5.31     5.27     5.22     
 5.17     5.13     5.10     5.07     5.06     5.03     5.01     5.01     5.01     5.01     
 5.02     5.04     5.08     5.15     5.24     5.33     5.44     5.56     5.69     5.84     
 6.01     6.19     6.38     6.59     6.82     7.07     7.33     7.59     7.88     8.18     
 8.48     8.81     9.15     9.53     9.93     10.35    10.83    11.33    11.87    12.44    
 13.03    13.68    14.38    15.14    15.92    16.78    17.67    18.58    19.59    20.62    
 21.74    22.95    24.23    25.57    26.99    28.52    30.16    31.92    33.79    35.79    
 37.88    40.07    42.45    44.97    47.64    50.47    53.58    56.91    60.42    64.33    
 68.72    73.47    78.72    84.48    90.78    97.58    104.88   112.64   120.77   129.47   
 138.29   147.26   155.94   164.78   173.32   181.56   189.54   197.10   204.42   211.36   
 217.90   223.85   228.78   232.66   235.07   236.11   235.85   234.31   231.68   227.89   
 223.39   218.43   213.03   207.38   201.46   195.04   187.83   179.90   170.83   161.07   
 140.26   
196120.94 194807.43 194654.87 194229.41 192948.80 170914.80 154700.44 134460.76 117675.45 93512.88 
 86230.95 62249.00 47729.09 29130.05 15671.77 11805.17 8037.96  4270.75  503.55   376.89   
 310.83   244.19   182.85   153.25   129.63   108.86   88.12    69.45    58.72    51.04    
 44.45    38.23    33.24    29.92    26.88    23.58    19.51    17.33    16.32    15.26    
 14.18    13.23    12.62    12.00    11.38    10.81    10.32    9.84     9.40     9.01     
 8.64     8.23     7.84     7.48     7.10     6.80     6.67     6.57     6.49     6.41     
 6.33     6.26     6.18     6.07     5.96     5.88     5.80     5.66     5.58     5.52     
 5.46     5.40     5.34     5.28     5.21     5.15     5.09     5.03     4.97     4.92     
 4.89     4.88     4.88     4.95     5.03     5.13     5.24     5.36     5.49     5.62     
 5.78     5.95     6.12     6.33     6.54     6.77     7.01     7.26     7.53     7.81     
 8.10     8.40     8.72     9.08     9.45     9.83     10.25    10.70    11.19    11.69    
 12.24    12.86    13.52    14.20    14.96    15.74    16.60    17.49    18.46    19.45    
 20.55    21.72    23.00    24.36    25.74    27.20    28.83    30.52    32.29    34.15    
 36.12    38.21    40.48    42.85    45.41    48.05    51.03    54.27    57.75    61.50    
 65.58    70.02    74.82    80.34    86.40    92.90    99.80    107.00   114.48   122.43   
 130.98   139.60   148.21   156.67   164.92   172.93   181.22   189.41   197.19   204.38   
 210.85   216.75   221.56   225.33   228.14   229.86   230.50   230.08   228.62   226.32   
 223.29   219.68   215.39   210.71   205.39   199.40   192.74   185.56   177.61   168.94   
 140.26   
196120.94 193750.95 193178.53 192610.80 191684.01 190195.31 179699.68 161539.83 147768.21 128988.03 
 114851.32 94351.09 77061.02 68555.54 49480.89 39284.46 28767.88 18296.50 12466.56 6636.61  
 849.58   645.90   481.23   380.42   303.83   251.91   200.10   159.51   129.51   104.49   
 88.56    76.02    65.27    55.75    48.13    41.55    37.44    33.86    30.87    28.27    
 26.07    23.38    20.21    17.18    15.80    15.09    14.22    13.53    12.88    12.52    
 12.05    11.32    10.87    10.34    10.00    9.72     9.50     9.17     8.87     8.67     
 8.19     7.93     7.81     7.71     7.62     7.53     7.45     7.27     7.11     6.90     
 6.78     6.28     6.11     5.97     5.83     5.68     5.50     5.35     5.19     5.04     
 4.90     4.79     4.72     4.72     4.75     4.82     4.90     5.01     5.12     5.24     
 5.39     5.53     5.69     5.86     6.05     6.25     6.47     6.71     6.96     7.22     
 7.48     7.76     8.04     8.36     8.69     9.04     9.42     9.82     10.31    10.80    
 11.32    11.87    12.48    13.14    13.83    14.59    15.40    16.22    17.12    18.12    
 19.17    20.28    21.48    22.68    23.98    25.37    26.87    28.44    30.08    31.83    
 33.67    35.68    37.80    40.01    42.35    44.91    47.67    50.61    53.71    57.12    
 60.98    65.04    69.50    74.37    79.75    85.67    91.90    98.67    105.74   113.32   
 121.12   129.27   137.40   145.87   154.39   162.86   171.16   178.95   186.71   193.71   
 200.04   205.83   210.78   215.02   218.33   220.88   222.51   223.37   223.37   222.68   
 221.19   218.99   216.09   212.48   208.27   203.43   197.97   191.90   185.13   177.95   
 140.26   
196120.94 194849.68 192747.43 191917.87 190670.66 189011.78 186389.89 182210.46 176970.87 164457.60 
 147355.22 130145.44 119061.55 102572.41 86971.92 75568.23 59448.83 46174.44 39356.70 30650.80 
 21290.67 17278.75 12828.42 9972.50  7134.55  3326.67  1174.58  879.42   603.07   436.98   
 328.30   255.63   210.22   173.30   148.82   128.11   111.95   95.84    83.49    73.50    
 66.94    60.61    54.58    48.97    44.72    40.77    37.59    34.44    32.12    30.06    
 28.00    25.20    22.43    19.53    17.88    17.30    16.52    15.09    14.53    13.93    
 13.30    12.74    12.00    11.64    11.35    10.75    10.35    9.77     9.10     8.86     
 8.63     8.41     8.17     7.89     7.60     7.34     6.88     6.60     6.29     5.98     
 5.69     5.42     5.11     4.85     4.75     4.74     4.79     4.88     4.99     5.10     
 5.23     5.37     5.49     5.66     5.82     6.00     6.22     6.43     6.65     6.88     
 7.13     7.39     7.67     7.96     8.29     8.65     9.02     9.42     9.83     10.29    
 10.77    11.30    11.86    12.47    13.14    13.84    14.58    15.38    16.24    17.16    
 18.09    19.08    20.17    21.35    22.56    23.82    25.18    26.64    28.19    29.83    
 31.56    33.38    35.31    37.35    39.62    42.07    44.70    47.47    50.50    53.76    
 57.28    61.25    65.71    70.53    75.75    81.33    87.31    93.74    100.76   108.08   
 115.57   123.22   131.18   139.24   147.29   155.26   163.15   170.77   178.03   184.99   
 191.36   197.34   202.74   207.50   211.65   215.12   217.94   220.03   221.32   221.88   
 221.63   220.49   218.55   215.95   212.84   209.06   204.70   199.81   194.40   188.41   
 140.26   
196120.94 196016.30 195218.00 193911.28 191791.47 188939.37 185614.28 181118.15 175687.26 169814.41 
 162439.65 154461.58 145533.68 135464.67 124774.19 113766.25 102291.41 90682.05 78114.35 65556.16 
 54424.41 45147.59 38972.72 34050.36 29466.28 25502.32 21550.80 18960.50 16988.52 14719.97 
 12100.61 9925.17  8631.01  7429.33  6461.14  5344.47  4097.79  3500.92  3048.15  2518.07  
 1990.35  1702.18  1435.03  1053.96  761.89   569.61   438.62   345.13   286.28   227.43   
 168.90   143.55   122.59   107.46   93.80    84.14    76.03    68.50    61.95    56.44    
 51.31    45.91    42.15    38.74    35.31    32.76    30.07    27.05    24.63    22.44    
 21.64    20.58    19.73    18.71    17.41    16.45    15.12    13.80    12.78    11.72    
 10.64    9.44     8.19     6.85     5.43     4.29     3.95     3.97     4.03     4.10     
 4.18     4.27     4.38     4.52     4.66     4.80     4.97     5.14     5.33     5.53     
 5.74     5.96     6.19     6.45     6.73     7.02     7.32     7.66     8.01     8.40     
 8.81     9.27     9.76     10.28    10.83    11.42    12.04    12.70    13.40    14.17    
 15.00    15.88    16.86    17.84    18.87    19.95    21.13    22.39    23.73    25.18    
 26.69    28.30    30.03    31.89    33.86    36.01    38.34    40.88    43.58    46.55    
 49.96    53.64    57.66    62.11    66.91    72.27    78.01    84.21    90.70    97.75    
 105.06   112.60   120.18   128.13   136.07   143.99   151.95   159.59   167.36   174.82   
 182.03   188.87   195.30   201.40   206.89   211.88   216.19   219.86   222.69   224.71   
 225.89   226.19   225.61   224.15   221.99   219.05   215.41   211.21   206.50   201.41   
 140.26   
196120.94 196487.30 196340.78 195843.18 194775.17 193114.09 189973.37 185470.19 179906.72 173902.43 
 166173.15 157960.75 148905.70 138732.81 127704.56 116817.13 105279.86 94028.35 83120.79 73128.77 
 64016.64 56209.80 49565.68 43946.73 39656.69 36202.55 33270.74 30498.87 28013.70 25936.76 
 23859.81 21785.79 19995.61 18418.17 16906.95 15674.45 14621.48 13415.58 12494.30 11624.30 
 10766.23 9941.69  9076.67  8280.01  7562.75  6915.94  6285.00  5725.87  5300.49  4812.31  
 4379.58  3942.54  3603.48  3272.34  3005.87  2780.63  2555.39  2330.37  2125.38  1935.80  
 1763.48  1617.42  1485.25  1374.60  1271.54  1171.14  1072.56  976.46   880.40   792.02   
 710.39   639.88   577.16   516.46   456.30   402.44   349.30   301.32   264.36   227.41   
 190.54   162.26   136.96   112.43   91.17    73.10    55.65    37.81    24.95    12.81    
 5.15     3.64     3.17     2.63     2.48     2.42     2.43     2.44     2.45     2.47     
 2.49     2.50     2.52     2.54     2.57     2.60     2.63     2.67     2.72     2.78     
 2.84     2.90     2.97     3.04     3.11     3.19     3.27     3.34     3.42     3.52     
 3.62     3.73     3.83     3.90     4.01     4.15     4.30     4.48     4.68     4.89     
 5.15     5.41     5.71     6.04     6.41     6.80     7.24     7.78     8.33     8.93     
 9.60     10.32    11.11    11.99    12.95    13.99    15.11    16.35    17.63    18.99    
 20.43    21.94    23.54    25.24    27.03    28.90    30.91    33.08    35.38    37.79    
 40.36    43.05    45.83    48.79    51.88    55.14    58.59    62.25    66.18    70.50    
 75.10    80.18    85.78    91.88    98.39    105.27   112.70   120.55   128.68   136.75   
 140.26   
196120.94 196523.61 196570.17 196377.35 195725.27 195217.03 193386.58 190051.63 185517.54 179909.35 
 173188.75 166056.61 157541.98 148196.05 137676.67 126564.51 115253.95 104343.91 93768.43 83794.39 
 74318.11 66208.86 59336.77 53810.90 49285.44 45627.39 42453.22 39676.77 37088.46 34576.76 
 32313.74 30249.91 28282.40 26575.69 24918.52 23435.14 22177.86 20819.87 19685.01 18682.49 
 17567.18 16608.17 15564.06 14617.58 13632.61 12753.65 11836.21 10984.44 10133.20 9432.85  
 8702.44  8047.60  7447.35  6911.07  6414.10  5988.95  5653.88  5321.18  5022.45  4754.77  
 4502.52  4282.57  4073.82  3880.74  3680.64  3489.64  3317.09  3146.70  2977.52  2806.36  
 2647.57  2498.87  2359.43  2226.05  2099.51  1979.03  1861.00  1747.77  1645.77  1552.66  
 1463.22  1382.59  1306.83  1233.71  1176.61  1119.66  1062.72  1023.27  986.30   958.94   
 933.39   903.59   883.56   869.55   849.13   825.97   800.97   774.40   755.55   728.35   
 698.03   676.44   649.04   623.57   600.23   574.83   549.36   529.96   504.26   480.61   
 459.64   436.03   417.94   397.54   377.20   358.11   340.62   323.67   302.72   286.28   
 269.76   255.69   237.39   220.16   201.87   186.28   171.53   154.72   140.99   126.73   
 111.59   96.44    79.81    61.61    46.14    33.59    23.02    16.07    11.56    8.41     
 7.16     7.35     7.99     8.75     9.60     10.55    11.58    12.65    13.77    14.97    
 16.22    17.50    18.80    20.15    21.61    23.13    24.72    26.40    28.21    30.07    
 31.95    34.05    36.28    38.66    41.21    43.90    46.82    50.03    53.55    57.41    
 61.79    66.61    72.12    78.15    84.80    92.17    100.02   108.54   117.32   126.44   
 140.26   
196120.94 196571.06 197035.52 199069.29 200587.05 200773.20 199890.03 197822.02 194466.70 189727.53 
 183985.80 177388.95 169718.75 160846.83 150923.95 140376.77 129649.60 119008.95 108367.24 97955.46 
 88044.83 79380.36 72231.00 66312.64 61247.70 57087.96 53212.79 49759.71 46699.60 43596.57 
 40833.41 38260.15 35713.37 33433.35 31398.71 29460.20 27660.14 25914.66 24453.81 22994.58 
 21665.29 20320.98 19143.85 18093.32 16958.98 15980.72 14957.05 14048.16 13121.38 12234.48 
 11379.46 10584.63 9787.37  9081.15  8394.53  7780.14  7303.65  6832.66  6425.65  6061.18  
 5748.92  5463.50  5219.90  4969.60  4695.34  4461.65  4241.62  4028.18  3833.12  3638.21  
 3457.24  3271.98  3095.88  2918.27  2747.71  2577.15  2406.87  2263.02  2145.73  2030.64  
 1912.44  1807.29  1708.34  1625.52  1553.80  1484.39  1427.34  1376.63  1341.35  1312.34  
 1274.42  1244.35  1219.92  1195.91  1170.80  1147.57  1123.31  1099.34  1077.50  1052.96  
 1027.42  1007.69  981.38   962.33   939.09   921.79   901.17   879.13   858.09   840.31   
 822.20   802.56   783.71   759.40   741.91   723.39   705.07   686.21   667.77   649.10   
 629.30   610.79   593.17   574.58   558.01   537.11   517.78   499.60   481.55   463.12   
 445.09   427.87   405.54   385.42   366.37   346.60   324.01   303.14   282.34   260.33   
 237.98   215.65   195.57   177.77   161.63   143.69   128.27   112.66   99.45    86.41    
 55.47    27.19    22.41    18.47    17.08    18.40    19.95    21.58    23.28    25.09    
 27.00    29.00    30.99    32.99    35.09    37.36    39.79    42.56    45.68    49.23    
 53.08    57.55    62.67    68.44    74.90    82.15    90.29    99.13    108.56   118.40   
 140.26   
196120.94 196638.55 199550.72 202177.03 203893.24 204826.92 204713.40 203592.73 201556.38 198375.69 
 194175.18 188896.59 182606.74 175013.07 165209.63 154572.37 143526.91 131799.85 120046.28 107936.43 
 97057.97 87501.08 80094.00 73675.76 68549.19 63884.84 60012.78 56248.22 52383.23 48825.75 
 45571.94 42689.01 39666.98 37150.45 34935.36 32584.16 30806.31 28973.62 27271.95 25756.44 
 24266.52 22749.14 21156.31 19752.77 18426.16 17191.30 16091.89 14926.24 14045.37 13131.06 
 12242.69 11534.25 10827.57 10120.90 9516.71  8958.79  8449.05  7996.33  7575.41  7225.45  
 6868.01  6518.29  6192.94  5868.22  5540.31  5242.85  4982.99  4742.33  4502.24  4249.30  
 4017.54  3809.26  3608.13  3414.52  3233.43  3060.87  2900.83  2741.71  2583.39  2448.77  
 2325.60  2218.58  2114.51  2023.56  1943.69  1870.35  1818.32  1771.71  1732.38  1677.45  
 1632.02  1599.53  1566.73  1537.96  1509.21  1477.74  1446.96  1422.60  1399.92  1376.04  
 1345.73  1321.79  1295.09  1267.57  1243.65  1215.74  1191.03  1166.34  1142.83  1122.79  
 1100.54  1082.49  1063.07  1041.46  1018.20  1001.41  983.03   965.24   944.52   928.57   
 910.02   894.43   875.03   859.17   839.93   819.85   801.09   781.35   760.24   736.51   
 711.07   689.41   666.23   642.78   619.25   594.80   568.66   543.54   519.39   498.44   
 475.37   450.93   429.28   404.73   383.42   359.99   337.84   314.96   286.32   257.86   
 236.62   215.06   194.95   174.25   155.92   134.42   113.20   92.00    42.25    33.45    
 31.22    29.09    28.92    30.87    33.47    36.23    39.10    41.88    44.72    47.78    
 51.22    55.14    59.69    64.70    70.49    76.93    84.27    92.88    102.31   112.60   
 140.26   
196120.94 197141.84 200973.59 203801.06 206033.40 207794.83 208890.06 209199.57 208346.24 206037.55 
 203088.33 199497.20 193710.89 186367.56 176832.20 164980.46 151677.95 138465.34 125797.94 113119.84 
 102597.33 92349.27 84431.66 78096.61 72695.33 67601.41 63401.11 59149.77 55259.47 51778.59 
 48469.92 45665.35 43041.82 40676.64 38393.40 36351.98 33990.67 31695.32 29625.18 27857.41 
 26234.53 24811.13 23387.66 21960.41 20738.01 19593.66 18500.43 17384.83 16381.58 15346.78 
 14356.87 13432.24 12661.54 11987.45 11333.97 10675.99 10085.87 9604.21  9095.86  8639.08  
 8235.05  7846.52  7415.13  7018.94  6649.43  6320.71  5995.22  5707.67  5438.78  5186.85  
 4944.57  4703.37  4451.73  4232.78  3998.70  3803.60  3607.72  3425.60  3254.49  3097.50  
 2947.45  2807.78  2698.51  2589.24  2480.38  2405.02  2330.94  2261.18  2189.41  2111.55  
 2057.98  2012.94  1968.78  1925.41  1884.02  1845.78  1806.65  1769.61  1733.38  1695.45  
 1661.07  1624.06  1586.76  1551.16  1520.06  1489.97  1457.94  1428.72  1397.06  1370.88  
 1345.63  1321.00  1293.15  1271.80  1244.25  1222.72  1198.64  1173.56  1148.81  1122.55  
 1096.20  1067.51  1040.12  1013.14  984.63   961.89   937.88   915.72   893.40   871.43   
 854.08   833.01   809.52   787.64   770.70   746.96   726.03   705.31   683.56   662.60   
 639.67   613.67   587.53   557.70   533.31   509.04   486.62   463.82   445.29   423.50   
 398.72   373.22   346.36   313.23   279.54   253.39   227.25   201.13   176.50   141.68   
 118.19   83.64    37.62    34.79    34.76    37.38    40.78    44.64    48.45    51.94    
 55.08    58.37    62.01    66.27    71.10    77.05    83.95    92.06    101.65   111.85   
 140.26   
196120.94 198732.38 202303.30 205006.03 207367.47 209505.49 211314.01 212312.65 211693.89 209930.98 
 206785.88 202495.08 196626.99 187932.33 175759.82 162731.96 149387.74 135524.27 122724.51 110336.46 
 99772.87 90840.35 83131.32 76916.65 71633.68 66963.23 62580.22 58810.97 55461.03 52452.94 
 49356.75 46374.96 43692.43 40941.00 38423.64 35920.21 33938.26 32183.40 30649.46 29041.51 
 27273.89 25973.62 24626.16 23449.17 22257.82 21149.86 19955.09 18763.57 17818.88 16884.09 
 15947.92 14929.75 14057.78 13286.60 12587.90 11814.31 11242.68 10672.79 10198.22 9671.56  
 9097.67  8627.25  8229.60  7846.36  7480.18  7133.50  6828.51  6515.84  6218.42  5913.86  
 5625.79  5343.50  5082.56  4837.17  4599.18  4384.23  4168.29  3964.02  3765.51  3589.22  
 3422.00  3278.65  3140.74  3019.35  2915.07  2816.99  2722.20  2629.46  2527.06  2445.94  
 2374.69  2311.99  2252.18  2196.43  2141.52  2085.16  2031.45  1980.99  1932.17  1883.36  
 1837.38  1795.06  1752.76  1711.67  1672.21  1633.17  1596.24  1561.25  1530.70  1497.78  
 1468.47  1441.61  1414.76  1389.13  1363.11  1339.50  1314.30  1288.35  1260.71  1233.86  
 1214.27  1189.02  1163.72  1138.72  1113.93  1091.36  1069.42  1049.27  1027.23  1007.33  
 984.50   959.78   933.48   911.94   888.36   865.41   841.16   809.17   784.46   764.20   
 742.34   721.31   699.73   673.98   644.50   616.81   587.01   562.10   535.49   502.66   
 474.12   447.47   414.65   383.80   350.85   316.32   283.86   256.75   230.34   206.15   
 175.64   134.56   90.31    46.04    41.24    43.93    46.98    51.03    55.54    59.80    
 63.53    66.87    70.20    73.76    78.09    83.83    90.81    99.34    109.06   119.73   
 140.26   
196120.94 199113.95 202313.33 204799.96 207157.52 209351.22 211130.69 212154.37 211503.65 209919.30 
 205981.52 201404.02 194312.49 183554.53 170920.18 158208.80 144377.43 130559.11 117485.46 106158.27 
 96123.56 87464.21 80213.65 74506.68 69592.41 64829.32 60432.12 57062.30 53908.31 50869.41 
 48135.77 45027.38 41807.84 39356.72 36983.98 34871.33 33254.66 31569.32 29789.41 28075.81 
 26587.50 25332.81 24078.11 22824.02 21626.50 20475.99 19384.23 18392.62 17489.44 16534.44 
 15426.55 14556.33 13765.16 13018.49 12216.65 11465.01 10918.91 10403.69 9874.54  9360.86  
 8861.92  8450.55  8054.75  7681.87  7338.90  7036.94  6733.58  6450.38  6168.37  5883.68  
 5611.22  5352.41  5123.04  4897.31  4672.77  4447.78  4236.37  4032.47  3852.79  3675.34  
 3516.93  3367.57  3234.95  3120.94  3014.23  2911.61  2814.08  2716.64  2619.19  2522.01  
 2449.76  2381.58  2317.11  2254.50  2195.02  2136.67  2081.32  2027.55  1975.38  1925.78  
 1877.43  1833.40  1790.18  1746.94  1708.56  1671.29  1631.69  1597.17  1566.67  1535.86  
 1508.51  1478.81  1453.59  1429.31  1407.04  1386.42  1365.35  1343.80  1325.06  1305.88  
 1285.59  1261.96  1240.07  1218.57  1196.49  1173.31  1149.26  1127.79  1105.17  1083.88  
 1061.44  1037.16  1013.48  986.41   959.04   932.29   906.71   876.80   844.26   820.29   
 794.97   772.44   745.10   719.92   692.75   664.32   635.68   607.85   582.67   553.83   
 519.63   490.54   458.08   425.64   395.47   358.59   323.51   294.23   263.12   231.51   
 199.76   156.35   127.20   81.87    47.99    50.97    54.39    59.07    64.18    69.13    
 73.52    77.47    81.15    84.68    88.23    93.01    99.31    107.28   117.33   128.79   
 140.26   
196120.94 199675.28 201999.13 203846.51 205510.90 206863.16 207834.95 207784.49 206446.77 204165.63 
 199359.63 193619.30 185317.63 174034.10 160809.48 147661.44 134219.81 121340.03 109500.24 98709.07 
 89762.66 82190.71 75833.56 70414.97 65518.17 61008.16 57182.85 53635.60 50585.84 47584.78 
 44870.65 42222.92 39428.48 36859.69 34599.59 32581.13 30728.03 29175.19 27469.84 25810.38 
 24374.16 23143.05 21921.84 20625.07 19705.88 18499.28 17417.67 16428.78 15504.39 14632.33 
 13735.19 12895.10 12119.22 11468.19 10818.32 10210.79 9693.66  9289.17  8833.52  8346.32  
 7922.34  7570.93  7224.75  6903.62  6599.68  6323.34  6051.28  5803.89  5542.57  5269.83  
 5018.00  4778.87  4571.93  4363.85  4171.90  3979.70  3801.21  3623.66  3460.24  3307.04  
 3173.31  3053.48  2944.27  2851.96  2764.76  2682.46  2597.78  2502.59  2426.27  2366.67  
 2310.04  2256.67  2204.94  2156.05  2109.20  2062.50  2021.32  1978.58  1939.85  1898.75  
 1859.23  1821.75  1785.09  1753.70  1722.74  1689.37  1658.89  1632.38  1604.30  1579.43  
 1557.42  1534.22  1514.64  1493.48  1474.32  1453.57  1430.37  1408.03  1384.42  1361.61  
 1341.63  1320.47  1297.27  1273.66  1250.85  1230.47  1207.35  1184.21  1161.07  1132.88  
 1104.56  1076.15  1049.18  1020.69  989.37   955.80   917.79   886.52   857.74   830.11   
 802.39   771.81   742.99   711.89   679.89   648.97   620.15   590.91   559.93   525.02   
 493.99   460.56   430.28   392.34   348.90   311.32   283.35   251.42   224.68   195.06   
 156.55   130.50   80.53    52.98    56.26    60.55    65.71    71.20    76.64    81.66    
 86.33    90.59    94.63    98.51    102.38   107.15   112.98   120.44   129.15   139.32   
 140.26   
196120.94 198866.31 200398.15 201419.49 202113.84 202270.25 201790.15 200693.31 198368.89 194841.89 
 189483.20 182189.88 173679.39 163282.14 150651.40 137296.39 124929.61 112814.81 101262.01 91919.64 
 83996.02 77344.66 71822.55 66674.15 62008.26 57980.85 54049.15 50510.76 47106.21 44285.82 
 41684.79 39351.71 37166.79 35124.60 33089.33 30965.04 29020.74 26901.55 25384.42 23867.28 
 22352.69 21039.35 19804.65 18669.13 17566.39 16560.15 15566.19 14663.55 13778.27 12868.86 
 12056.60 11413.35 10784.86 10150.94 9563.89  9088.68  8628.62  8195.35  7788.60  7453.07  
 7065.79  6712.31  6367.51  6043.61  5755.90  5481.29  5227.80  4996.12  4775.27  4553.50  
 4321.43  4101.53  3891.78  3693.12  3515.01  3345.45  3182.39  3032.25  2888.40  2768.77  
 2660.53  2552.46  2459.32  2387.87  2328.15  2266.99  2211.65  2144.70  2091.99  2055.92  
 2022.00  1987.85  1956.68  1925.13  1893.70  1865.64  1837.82  1811.64  1788.16  1762.61  
 1738.12  1712.46  1690.06  1665.99  1642.91  1623.39  1605.04  1587.42  1569.56  1552.68  
 1539.04  1520.83  1503.89  1484.91  1468.69  1452.26  1435.91  1419.30  1399.38  1379.61  
 1358.91  1334.09  1310.09  1285.43  1260.10  1232.33  1203.14  1174.83  1147.14  1113.98  
 1082.04  1050.64  1017.80  983.37   945.54   909.60   876.69   840.13   805.49   772.28   
 735.50   700.44   665.05   630.77   594.21   560.15   524.61   496.02   466.90   437.29   
 405.57   371.13   333.28   302.89   270.75   242.14   213.47   180.47   147.42   117.43   
 70.71    54.44    55.73    59.09    63.85    69.60    75.36    81.15    86.55    91.69    
 96.50    101.10   105.62   110.12   114.87   120.10   126.20   133.11   141.11   149.94   
 140.26   
196120.94 197634.93 198171.50 198112.48 197492.54 196039.57 193954.58 191174.29 187292.42 181804.73 
 174738.04 166534.09 156707.95 146059.90 135184.35 123604.77 111819.14 100397.56 90660.92 82145.73 
 75406.76 69570.62 64814.42 60536.68 56460.06 53047.71 49549.87 46230.07 43225.34 40452.12 
 37881.97 35644.62 33560.05 31425.59 29747.98 28093.96 26349.39 24777.68 23270.61 21826.84 
 20478.18 19134.38 17830.02 16628.45 15479.05 14531.13 13573.11 12678.09 11897.98 11156.33 
 10414.96 9805.09  9256.79  8709.07  8214.87  7749.93  7344.37  7010.07  6679.96  6345.48  
 6031.36  5693.52  5408.86  5153.46  4898.74  4652.41  4430.93  4206.87  3976.39  3768.24  
 3577.07  3403.63  3237.98  3069.55  2919.84  2780.30  2644.04  2522.60  2409.68  2314.81  
 2225.69  2148.62  2079.64  2022.88  1978.02  1943.66  1903.82  1856.73  1824.75  1802.10  
 1778.73  1759.75  1736.41  1715.44  1694.88  1673.98  1652.23  1638.05  1614.76  1588.59  
 1566.78  1547.42  1527.67  1509.92  1491.79  1470.05  1452.34  1435.40  1416.48  1398.74  
 1378.21  1360.05  1341.11  1320.57  1300.02  1279.06  1258.51  1237.61  1217.05  1192.12  
 1167.15  1142.18  1113.49  1088.72  1061.24  1032.44  1001.04  970.62   938.22   905.93   
 873.57   840.25   811.14   778.41   746.08   715.35   682.99   650.49   612.69   578.56   
 545.49   512.43   478.42   447.62   412.13   377.54   342.22   310.47   274.79   243.43   
 211.03   182.09   151.26   130.12   100.38   70.55    53.44    49.98    49.64    51.42    
 55.31    60.26    65.38    70.68    76.04    81.39    86.72    91.96    97.07    102.05   
 106.85   111.65   116.70   121.82   127.34   133.39   139.87   146.86   154.24   162.22   
 140.26   
196120.94 196650.96 196408.76 195426.55 193775.72 191204.65 187629.68 183239.77 177822.98 171122.59 
 162685.16 153450.25 143320.97 132743.83 122049.74 111398.83 100768.38 90856.57 81794.31 74324.22 
 67979.82 62503.27 57906.91 53887.50 50313.17 47296.39 44403.89 41432.65 38746.28 36313.60 
 34141.94 32060.79 30203.73 28406.56 26713.32 25204.03 23694.75 22187.42 20845.58 19614.23 
 18463.38 17406.61 16429.99 15486.70 14575.52 13657.92 12770.39 11909.02 11147.47 10400.36 
 9635.33  8961.11  8349.53  7767.84  7240.39  6806.69  6407.76  6064.93  5765.46  5474.08  
 5228.77  4986.30  4749.14  4524.53  4319.22  4126.19  3944.36  3768.99  3603.00  3423.37  
 3231.58  3052.28  2889.95  2751.01  2611.90  2472.97  2351.26  2236.83  2135.10  2041.12  
 1950.98  1872.49  1810.65  1754.41  1705.45  1665.73  1637.04  1606.39  1567.94  1544.10  
 1525.96  1505.94  1481.54  1455.53  1430.74  1404.57  1380.57  1356.30  1330.81  1304.56  
 1281.27  1255.45  1232.09  1203.83  1176.64  1149.64  1124.48  1099.10  1073.10  1046.10  
 1022.04  995.98   970.45   943.45   918.11   891.81   868.35   842.36   819.27   792.19   
 763.45   736.79   711.94   687.35   664.12   639.08   612.91   582.42   553.94   526.77   
 497.94   469.11   437.66   404.56   376.46   348.64   322.47   295.64   266.29   237.43   
 208.58   180.15   154.31   130.31   110.61   88.12    54.76    33.31    28.57    25.56    
 26.78    29.79    33.07    36.59    40.33    44.28    48.48    52.87    57.41    62.05    
 66.80    71.55    76.39    81.28    86.25    91.22    96.12    101.18   106.17   111.30   
 116.45   121.90   127.67   133.81   140.18   146.73   153.60   160.54   167.68   174.82   
 140.26   
196120.94 195647.79 194507.74 192696.12 190040.41 186376.77 181565.56 175948.92 169248.61 161516.65 
 152820.18 142717.25 132136.17 121273.02 110058.87 98943.85 88575.37 79271.42 70799.43 63450.53 
 57184.49 52212.31 48210.92 44922.84 41805.24 38963.29 36527.22 34245.54 31954.86 29988.74 
 28166.63 26474.99 24937.22 23392.99 22115.00 20886.28 19673.62 18523.80 17498.78 16479.73 
 15515.48 14555.69 13588.10 12651.76 11786.17 10978.04 10170.40 9423.97  8759.88  8145.30  
 7572.80  7034.74  6561.65  6144.32  5768.78  5424.56  5132.23  4864.17  4626.09  4396.20  
 4180.68  3971.80  3780.63  3588.06  3401.82  3222.77  3052.13  2885.14  2724.13  2572.30  
 2437.63  2299.53  2173.66  2045.55  1926.55  1821.11  1718.19  1617.67  1525.51  1437.78  
 1360.42  1285.93  1217.41  1161.83  1106.34  1050.85  1012.54  972.38   935.92   905.99   
 875.99   844.91   811.01   777.90   743.85   710.36   676.43   644.60   614.50   583.94   
 554.48   525.04   497.74   472.59   447.67   423.39   399.15   374.45   353.29   330.08   
 307.57   285.62   263.17   242.46   223.61   205.80   188.85   171.48   156.54   143.29   
 130.87   119.55   108.23   97.68    86.47    76.21    64.37    50.28    36.04    24.27    
 15.79    11.28    9.22     8.95     9.59     10.39    11.26    12.23    13.29    14.43    
 15.74    17.17    18.72    20.43    22.30    24.36    26.58    28.93    31.49    34.29    
 37.29    40.43    43.76    47.40    51.23    55.12    59.29    63.64    68.10    72.69    
 77.39    82.25    87.12    92.16    97.18    102.32   107.51   112.76   118.07   123.55   
 129.24   135.18   141.46   147.87   154.54   161.45   168.47   175.68   182.62   189.28   
 140.26   
196120.94 195408.12 194201.98 192391.12 188551.94 183596.14 178017.62 171348.13 163425.27 154802.62 
 145185.63 134789.92 124076.13 112900.68 101316.75 90136.00 79638.62 70007.11 61457.94 53798.28 
 47557.72 42527.56 38431.22 35050.16 31915.90 29356.16 26967.10 24801.20 22760.69 20925.09 
 19185.90 17690.40 16283.91 15070.22 13948.78 12930.17 11920.52 10985.39 10120.19 9255.71  
 8433.21  7661.98  6992.11  6367.48  5823.91  5353.51  4874.79  4454.74  4057.17  3690.81  
 3347.96  3025.42  2753.08  2512.69  2297.66  2086.51  1882.54  1701.67  1535.36  1393.42  
 1271.21  1162.75  1054.43  946.11   847.51   756.33   670.67   593.23   522.07   455.52   
 394.32   335.36   284.17   241.97   202.06   167.47   133.92   109.95   86.10    69.00    
 52.16    35.86    22.40    14.90    8.79     5.05     4.82     4.68     4.59     4.58     
 4.60     4.62     4.57     4.57     4.64     4.73     4.83     4.93     5.04     5.16     
 5.29     5.42     5.52     5.65     5.79     5.96     6.16     6.36     6.60     6.86     
 7.15     7.45     7.80     8.18     8.58     9.02     9.48     9.97     10.51    11.11    
 11.75    12.44    13.18    13.96    14.80    15.68    16.64    17.66    18.77    19.95    
 21.21    22.57    24.06    25.67    27.45    29.40    31.56    34.04    36.79    39.87    
 43.21    46.96    51.06    55.74    60.94    66.46    72.38    78.52    84.96    91.77    
 99.06    106.34   113.62   120.77   127.76   134.62   141.79   148.78   155.29   161.33   
 167.05   172.47   177.28   181.53   185.27   188.23   190.41   191.77   192.29   191.99   
 190.86   188.97   186.36   183.15   179.32   174.86   169.92   164.51   158.61   152.08   
 140.26   
196120.94 195546.02 194640.29 193278.24 189787.65 184766.14 178946.11 171943.40 163093.95 148179.60 
 133331.85 118921.07 103996.17 92569.34 81544.64 68822.45 57355.61 47517.08 39615.50 34184.85 
 28954.35 23723.86 18513.60 15784.70 13900.32 12131.77 10451.60 8441.44  6449.02  5591.62  
 4905.96  4163.93  3458.78  2753.63  2050.61  1599.69  828.03   551.89   422.85   318.98   
 253.82   188.88   153.69   126.33   102.98   88.93    80.69    72.05    64.85    58.13    
 53.37    48.96    44.88    41.22    38.41    35.85    33.14    30.98    29.15    27.19    
 24.89    22.67    19.71    15.85    14.53    13.97    13.42    12.94    12.32    11.42    
 10.53    10.01    9.39     8.71     8.31     7.86     7.19     6.69     6.21     5.71     
 5.18     4.64     4.16     3.95     3.96     4.01     4.07     4.13     4.21     4.29     
 4.40     4.52     4.64     4.78     4.94     5.11     5.29     5.48     5.68     5.89     
 6.12     6.36     6.62     6.90     7.21     7.52     7.86     8.24     8.66     9.10     
 9.57     10.07    10.62    11.20    11.80    12.44    13.14    13.87    14.64    15.48    
 16.39    17.39    18.43    19.51    20.61    21.80    23.08    24.46    25.93    27.46    
 29.09    30.82    32.73    34.81    37.00    39.38    42.11    45.07    48.26    51.82    
 55.85    60.22    64.97    70.18    75.77    81.88    88.25    94.97    101.94   109.19   
 116.55   123.95   131.15   138.59   145.77   152.76   159.55   165.84   172.02   177.67   
 182.85   187.46   191.46   194.92   197.55   199.44   200.44   200.54   199.74   198.07   
 195.60   192.22   188.19   183.76   178.85   172.84   166.40   159.59   152.25   144.47   
 140.26   
196120.94 195670.77 194999.93 194003.42 191276.51 175493.16 158075.34 143648.63 129704.07 113501.25 
 99909.77 84911.44 67985.89 55318.64 48445.10 35829.29 25802.70 21487.62 14101.15 10042.86 
 6025.77  2008.67  1428.28  887.35   346.42   240.14   180.09   135.71   112.39   89.34    
 75.81    65.55    58.36    53.21    48.31    44.23    39.85    37.28    35.14    32.72    
 31.02    29.34    27.23    25.23    23.47    22.04    19.75    16.02    13.55    12.66    
 12.20    11.81    11.40    11.20    10.99    10.63    10.32    10.00    9.25     9.09     
 8.87     8.48     7.97     7.69     7.52     7.34     7.18     6.84     6.66     6.49     
 6.32     6.15     5.98     5.80     5.62     5.42     5.25     5.07     4.90     4.75     
 4.66     4.64     4.64     4.72     4.80     4.88     4.99     5.09     5.22     5.35     
 5.49     5.65     5.81     6.00     6.21     6.43     6.66     6.91     7.19     7.47     
 7.77     8.08     8.42     8.78     9.17     9.57     10.01    10.49    10.98    11.51    
 12.10    12.73    13.41    14.12    14.90    15.71    16.58    17.50    18.47    19.49    
 20.60    21.76    23.04    24.36    25.76    27.20    28.76    30.46    32.23    34.09    
 36.05    38.12    40.40    42.87    45.47    48.29    51.43    54.88    58.66    62.79    
 67.21    72.03    77.26    83.11    89.44    96.07    103.00   110.09   117.40   125.14   
 133.14   141.05   148.77   156.17   163.14   169.79   176.47   182.77   188.39   193.34   
 197.58   201.31   204.30   206.46   207.90   208.61   208.58   207.75   206.17   203.85   
 200.57   196.53   191.67   186.07   179.70   172.56   164.97   156.96   148.12   138.83   
 140.26   
196120.94 195793.47 195467.41 194709.36 178553.37 157627.59 143930.72 123956.35 108959.11 86906.08 
 75736.69 60217.60 42935.68 34499.87 26064.06 17628.25 9192.45  835.97   626.78   452.60   
 344.93   281.46   217.99   154.73   117.06   93.06    78.69    67.99    56.72    49.07    
 42.46    37.49    34.32    30.88    28.13    25.46    22.91    20.59    17.32    14.03    
 12.44    11.82    11.31    10.72    10.38    10.13    9.56     9.24     8.94     8.67     
 8.32     8.11     8.00     7.94     7.65     7.21     7.10     7.00     6.89     6.77     
 6.65     6.46     6.34     6.19     6.07     5.96     5.84     5.73     5.63     5.54     
 5.47     5.38     5.28     5.20     5.12     5.04     4.97     4.91     4.88     4.88     
 4.90     4.93     5.01     5.08     5.18     5.28     5.38     5.50     5.63     5.78     
 5.94     6.11     6.30     6.50     6.72     6.95     7.19     7.45     7.73     8.01     
 8.32     8.65     9.02     9.40     9.80     10.24    10.73    11.23    11.77    12.36    
 12.96    13.63    14.34    15.12    15.95    16.83    17.81    18.82    19.84    20.97    
 22.16    23.47    24.86    26.33    27.83    29.43    31.14    32.98    34.95    37.00    
 39.14    41.46    43.98    46.60    49.36    52.39    55.69    59.30    63.11    67.33    
 72.02    77.10    82.60    88.54    94.94    101.83   108.98   116.52   124.24   132.32   
 140.58   148.93   157.08   165.31   173.28   180.82   187.95   194.31   200.12   205.10   
 209.25   212.53   214.86   216.43   216.82   216.32   214.94   212.62   209.69   206.06   
 201.80   196.66   190.96   184.62   177.76   170.36   162.22   153.46   144.16   134.24   
 140.26   
196120.94 195908.15 195842.58 188402.32 165133.19 150380.99 129454.14 110433.01 88928.87 75421.56 
 52536.20 38438.45 25994.34 8007.43  941.21   675.77   479.98   399.04   296.90   224.43   
 159.68   131.63   109.34   87.11    67.63    57.41    51.85    44.21    36.31    32.45    
 29.44    26.41    23.03    19.66    16.36    14.23    13.16    12.20    11.32    10.59    
 9.85     9.24     8.72     8.30     7.90     7.64     7.44     7.31     7.17     7.00     
 6.82     6.70     6.54     6.40     6.26     6.06     5.89     5.79     5.73     5.64     
 5.56     5.48     5.41     5.35     5.30     5.26     5.24     5.22     5.21     5.19     
 5.17     5.16     5.15     5.13     5.11     5.08     5.08     5.08     5.08     5.12     
 5.21     5.29     5.39     5.48     5.57     5.68     5.81     5.94     6.09     6.24     
 6.42     6.60     6.80     7.02     7.26     7.53     7.80     8.10     8.41     8.74     
 9.08     9.44     9.81     10.21    10.65    11.11    11.60    12.10    12.67    13.28    
 13.93    14.65    15.42    16.22    17.09    18.00    18.97    19.97    21.08    22.25    
 23.50    24.82    26.23    27.72    29.28    30.92    32.75    34.64    36.61    38.69    
 40.89    43.24    45.77    48.43    51.29    54.34    57.71    61.44    65.49    69.87    
 74.71    79.94    85.70    92.14    99.07    106.34   113.96   121.76   130.01   138.51   
 147.00   155.38   163.75   171.98   180.00   187.62   195.09   202.15   208.76   214.49   
 219.26   223.00   225.50   226.85   226.90   225.85   223.68   220.27   216.04   210.94   
 205.15   198.73   192.26   185.34   178.01   170.28   162.09   153.27   143.85   133.87   
 140.26   
196120.94 195946.01 195903.03 189437.09 163667.83 147181.45 129551.56 103635.62 91183.11 65180.27 
 48126.96 29144.43 10240.14 630.86   591.59   494.66   369.96   255.17   140.82   71.33    
 45.06    32.84    25.39    21.26    17.97    16.05    14.66    13.62    12.97    12.59    
 11.65    9.71     8.04     7.44     7.63     8.20     8.61     8.60     8.22     7.63     
 7.12     6.75     6.43     6.19     5.93     5.72     5.59     5.49     5.35     5.24     
 5.10     4.99     4.92     4.88     4.87     4.87     4.87     4.87     4.88     4.88     
 4.90     4.90     4.90     4.88     4.89     4.91     4.94     4.97     4.99     5.03     
 5.05     5.10     5.14     5.18     5.23     5.28     5.34     5.39     5.41     5.44     
 5.48     5.54     5.61     5.70     5.81     5.93     6.05     6.18     6.33     6.50     
 6.68     6.87     7.07     7.30     7.54     7.80     8.08     8.38     8.69     9.01     
 9.33     9.65     10.02    10.43    10.87    11.32    11.82    12.33    12.89    13.51    
 14.14    14.84    15.60    16.41    17.27    18.19    19.17    20.18    21.20    22.30    
 23.49    24.77    26.12    27.55    29.06    30.65    32.35    34.21    36.20    38.27    
 40.45    42.76    45.30    47.95    50.73    53.77    57.05    60.63    64.40    68.64    
 73.42    78.62    84.35    90.64    97.49    104.89   112.70   121.01   129.54   138.55   
 147.54   156.68   165.41   174.17   182.57   190.68   198.37   205.50   212.36   218.75   
 224.62   229.61   233.42   235.94   236.98   236.67   234.86   231.71   227.33   221.88   
 215.77   209.22   202.20   194.85   187.29   179.27   170.75   161.83   152.10   141.98   
 140.26   
196120.94 195968.82 196027.16 190447.52 164231.88 147462.53 130110.54 102224.71 90780.23 62309.81 
 45343.14 29514.61 14926.79 352.69   114.17   78.15    42.63    30.44    22.17    19.04    
 17.18    16.14    15.14    13.97    12.94    11.66    10.69    9.92     9.30     8.76     
 8.19     7.36     6.87     6.71     6.70     6.69     6.62     6.54     6.53     6.53     
 6.47     6.36     6.29     6.23     6.19     6.17     6.12     6.10     6.10     6.09     
 6.10     6.11     6.11     6.08     6.03     6.00     5.98     5.96     5.96     5.95     
 5.95     5.94     5.89     5.85     5.80     5.76     5.73     5.69     5.64     5.59     
 5.57     5.55     5.53     5.52     5.52     5.51     5.51     5.51     5.50     5.52     
 5.55     5.62     5.70     5.79     5.90     6.01     6.14     6.28     6.44     6.59     
 6.77     6.96     7.16     7.39     7.63     7.89     8.15     8.43     8.73     9.03     
 9.35     9.68     10.06    10.47    10.90    11.36    11.84    12.34    12.91    13.51    
 14.17    14.88    15.64    16.43    17.28    18.18    19.13    20.10    21.14    22.24    
 23.40    24.65    25.96    27.35    28.81    30.30    32.01    33.85    35.79    37.85    
 39.96    42.24    44.70    47.33    50.11    53.14    56.35    59.85    63.62    67.73    
 72.25    77.34    83.01    89.20    95.88    103.04   110.64   118.89   127.59   136.41   
 145.55   154.61   163.52   172.39   180.91   188.99   196.68   204.04   210.86   217.41   
 223.44   228.89   233.34   236.50   238.26   238.51   237.34   234.66   230.92   225.91   
 220.24   213.98   207.42   200.77   194.03   186.85   179.30   171.16   162.08   152.12   
 140.26   
