IESNA:LM-63-2002
[TEST] 1
[TESTLAB] AOK
[TESTDATE] 2022-05-30
[ISSUEDATE] 2022-05-31 09:02:13
[NEARFIELD] 
[LAMPPOSITION] 0,0
[OTHER] EVERFINE GO-2000A_V1 SYSTEM
[MANUFAC] AOK
[LUMCAT] A
[LUMINAIRE] AOK-800WiSF-HV-S35-00-5070-15D-P
[LAMPCAT] B
[LAMP] 5050
[BALLAST] E
[BALLASTCAT] F
[OTHER] 
[OTHER] Gamma(deg)    Fz(lm)      Ft(lm)     %Lum    %Lamp
[OTHER]   0- 10     49599.04    49599.04    46.08    46.08
[OTHER]  10- 20     28600.37    78199.41    72.66    72.66
[OTHER]  20- 30     10384.93    88584.33    82.31    82.31
[OTHER]  30- 40      5469.43    94053.76    87.39    87.39
[OTHER]  40- 50      4480.42    98534.18    91.55    91.55
[OTHER]  50- 60      3661.25   102195.43    94.95    94.95
[OTHER]  60- 70      2619.32   104814.75    97.39    97.39
[OTHER]  70- 80      1399.19   106213.94    98.69    98.69
[OTHER]  80- 90       566.85   106780.79    99.21    99.21
[OTHER]  90-100       251.46   107032.25    99.45    99.45
[OTHER] 100-110       150.30   107182.55    99.59    99.59
[OTHER] 110-120       112.60   107295.16    99.69    99.69
[OTHER] 120-130        84.10   107379.26    99.77    99.77
[OTHER] 130-140        56.86   107436.12    99.82    99.82
[OTHER] 140-150        40.58   107476.70    99.86    99.86
[OTHER] 150-160        57.10   107533.80    99.91    99.91
[OTHER] 160-170        68.57   107602.37    99.98    99.98
[OTHER] 170-180        23.37   107625.75   100.00   100.00
[OTHER] 
TILT=NONE
1 1.0763e+005 1 181 25 1 2 0.150 0.200 0.000
1.000 1 807.736
0.0    1.0    2.0    3.0    4.0    5.0    6.0    7.0    8.0    9.0    
 10.0   11.0   12.0   13.0   14.0   15.0   16.0   17.0   18.0   19.0   
 20.0   21.0   22.0   23.0   24.0   25.0   26.0   27.0   28.0   29.0   
 30.0   31.0   32.0   33.0   34.0   35.0   36.0   37.0   38.0   39.0   
 40.0   41.0   42.0   43.0   44.0   45.0   46.0   47.0   48.0   49.0   
 50.0   51.0   52.0   53.0   54.0   55.0   56.0   57.0   58.0   59.0   
 60.0   61.0   62.0   63.0   64.0   65.0   66.0   67.0   68.0   69.0   
 70.0   71.0   72.0   73.0   74.0   75.0   76.0   77.0   78.0   79.0   
 80.0   81.0   82.0   83.0   84.0   85.0   86.0   87.0   88.0   89.0   
 90.0   91.0   92.0   93.0   94.0   95.0   96.0   97.0   98.0   99.0   
 100.0  101.0  102.0  103.0  104.0  105.0  106.0  107.0  108.0  109.0  
 110.0  111.0  112.0  113.0  114.0  115.0  116.0  117.0  118.0  119.0  
 120.0  121.0  122.0  123.0  124.0  125.0  126.0  127.0  128.0  129.0  
 130.0  131.0  132.0  133.0  134.0  135.0  136.0  137.0  138.0  139.0  
 140.0  141.0  142.0  143.0  144.0  145.0  146.0  147.0  148.0  149.0  
 150.0  151.0  152.0  153.0  154.0  155.0  156.0  157.0  158.0  159.0  
 160.0  161.0  162.0  163.0  164.0  165.0  166.0  167.0  168.0  169.0  
 170.0  171.0  172.0  173.0  174.0  175.0  176.0  177.0  178.0  179.0  
 180.0  
0.0    15.0   30.0   45.0   60.0   75.0   90.0   105.0  120.0  135.0  
 150.0  165.0  180.0  195.0  210.0  225.0  240.0  255.0  270.0  285.0  
 300.0  315.0  330.0  345.0  360.0  
775516.75 779440.45 779442.58 777900.38 772111.10 709297.11 647115.61 581753.17 496378.10 413128.89 
 313439.88 224579.61 139796.28 113441.81 87724.96 62008.11 50083.10 40927.32 27641.17 20226.94 
 15721.63 11746.83 7777.87  3808.90  1383.88  920.82   478.64   36.46    23.23    19.43    
 17.81    16.25    14.90    13.61    12.08    10.59    9.29     8.22     7.57     7.31     
 7.12     7.09     6.90     6.56     6.33     6.24     6.19     5.98     5.97     5.81     
 5.30     4.89     4.58     4.30     4.23     4.11     4.04     4.03     4.00     3.97     
 3.93     3.92     3.90     3.87     3.87     3.88     3.88     3.88     3.88     3.89     
 3.89     3.89     3.89     3.90     3.90     3.90     3.90     3.89     3.87     3.85     
 3.85     3.86     3.86     3.92     3.98     4.06     4.17     4.28     4.40     4.52     
 4.68     4.83     5.01     5.22     5.42     5.62     5.86     6.09     6.33     6.58     
 6.80     7.07     7.33     7.60     7.92     8.26     8.60     8.96     9.33     9.70     
 10.10    10.53    10.96    11.43    11.91    12.40    12.89    13.42    13.98    14.57    
 15.18    15.80    16.46    17.16    17.85    18.55    19.29    20.10    20.96    21.88    
 22.85    23.90    25.07    26.41    27.94    29.64    31.55    33.68    36.13    38.96    
 42.11    45.65    49.60    54.03    59.02    64.60    70.88    77.95    86.23    96.10    
 107.83   121.44   137.12   155.34   175.57   197.37   220.73   245.98   271.25   295.83   
 319.63   342.17   363.52   382.59   398.84   410.27   417.03   418.92   416.10   409.35   
 399.19   387.09   373.64   359.31   344.72   328.62   311.16   292.05   271.46   249.51   
 226.52   
775516.75 780339.97 781282.46 779846.47 774674.20 739504.28 669457.24 606035.56 525548.31 434435.92 
 337165.25 256654.80 176243.20 107837.85 81676.49 64737.54 52261.45 42786.07 35482.62 27722.08 
 19982.70 14995.88 10119.78 6659.95  4591.54  2523.13  472.02   305.81   140.97   118.18   
 83.35    63.60    63.37    54.34    32.56    24.26    20.22    17.87    16.62    16.00    
 15.43    14.34    13.35    12.06    11.06    10.05    9.35     8.68     8.23     7.89     
 7.53     7.07     6.51     5.73     5.23     4.92     4.76     4.92     5.03     5.07     
 5.01     4.88     4.79     4.72     4.63     4.52     4.49     4.46     4.40     4.30     
 4.21     4.11     4.01     3.93     3.84     3.76     3.68     3.59     3.52     3.47     
 3.44     3.44     3.45     3.49     3.56     3.65     3.75     3.85     3.96     4.09     
 4.24     4.39     4.56     4.75     4.96     5.18     5.41     5.64     5.90     6.16     
 6.43     6.72     7.02     7.32     7.63     7.96     8.31     8.66     9.02     9.39     
 9.78     10.18    10.61    11.04    11.50    11.99    12.50    13.02    13.55    14.08    
 14.65    15.26    15.90    16.55    17.22    17.90    18.64    19.43    20.25    21.13    
 22.12    23.17    24.36    25.67    27.14    28.81    30.74    32.93    35.30    38.05    
 41.26    44.74    48.61    52.95    57.80    63.34    69.49    76.57    84.71    94.35    
 105.67   120.23   134.82   152.83   172.58   194.47   217.81   241.72   266.84   291.43   
 315.59   338.95   360.95   381.36   397.90   410.40   417.93   420.52   418.65   412.72   
 403.59   392.15   379.23   365.39   350.67   334.59   316.94   298.07   277.15   255.98   
 226.52   
775516.75 779875.29 780558.73 777458.83 770733.68 756121.46 696276.27 612481.50 523703.82 427072.61 
 327563.49 247522.28 177774.89 125221.29 92987.89 60969.35 49421.69 41236.72 35229.14 30261.49 
 26319.73 20843.65 15603.91 11496.70 8783.37  6085.20  3794.70  2330.16  1091.90  700.50   
 319.70   190.98   143.35   127.23   102.36   77.38    65.05    55.99    43.80    34.96    
 29.79    25.49    22.41    20.32    18.76    17.66    16.71    15.75    14.83    14.01    
 13.48    12.97    12.51    11.91    11.11    9.96     8.87     8.09     7.46     7.11     
 6.90     6.67     6.46     6.29     6.13     5.98     5.84     5.71     5.60     5.47     
 5.33     5.15     4.98     4.78     4.60     4.42     4.22     4.02     3.84     3.68     
 3.55     3.44     3.39     3.39     3.44     3.54     3.67     3.79     3.93     4.08     
 4.25     4.44     4.64     4.85     5.07     5.31     5.56     5.81     6.09     6.38     
 6.66     6.97     7.28     7.60     7.94     8.28     8.64     9.00     9.39     9.78     
 10.19    10.62    11.06    11.51    11.97    12.45    12.95    13.44    13.93    14.45    
 15.00    15.56    16.16    16.79    17.45    18.12    18.87    19.67    20.54    21.49    
 22.48    23.58    24.85    26.25    27.79    29.49    31.41    33.58    36.01    38.71    
 41.68    44.94    48.64    52.91    57.72    63.17    69.30    76.46    85.04    95.01    
 106.63   120.23   136.17   154.13   174.36   196.16   219.07   244.71   270.38   295.37   
 320.09   343.85   365.67   384.49   400.25   411.28   418.26   420.65   418.98   413.14   
 404.44   393.44   381.08   367.43   352.35   335.77   317.53   297.19   275.13   252.00   
 226.52   
775516.75 779241.61 779404.70 775107.60 764336.92 741426.08 699567.79 633819.66 526452.38 427410.66 
 328837.80 253809.41 179028.85 133504.46 96699.11 74151.49 57123.83 47142.91 34415.54 29165.52 
 25640.23 22118.84 19090.55 16269.21 13504.61 11196.60 8219.15  6509.05  4931.57  3789.32  
 2989.64  2191.79  1634.00  1094.64  568.45   430.79   293.13   156.35   117.28   93.96    
 79.82    66.99    57.56    50.07    43.94    38.45    34.42    30.20    27.36    25.34    
 22.90    21.44    20.38    19.95    19.10    18.06    17.05    16.20    15.61    15.10    
 14.25    12.98    10.93    8.91     8.22     7.86     7.56     7.30     7.12     6.93     
 6.73     6.52     6.30     6.06     5.79     5.50     5.17     4.83     4.47     4.11     
 3.78     3.50     3.28     3.18     3.21     3.32     3.44     3.57     3.72     3.89     
 4.08     4.27     4.47     4.69     4.94     5.19     5.46     5.73     6.02     6.32     
 6.62     6.94     7.28     7.62     7.99     8.35     8.72     9.10     9.50     9.89     
 10.29    10.72    11.16    11.59    12.05    12.55    13.06    13.56    14.07    14.59    
 15.14    15.72    16.33    16.94    17.56    18.23    18.94    19.73    20.54    21.43    
 22.41    23.47    24.63    25.92    27.31    28.88    30.64    32.57    34.69    37.10    
 39.90    43.01    46.54    50.61    55.28    60.79    67.16    74.65    83.48    94.03    
 106.37   121.76   137.19   156.09   176.44   198.78   222.69   247.10   272.81   297.91   
 322.51   345.48   366.06   384.26   398.89   409.70   416.41   419.06   417.58   412.58   
 404.50   394.22   381.88   367.55   351.94   333.60   313.42   292.38   270.05   247.62   
 226.52   
775516.75 777387.21 775006.43 766777.57 747039.72 706994.49 646348.98 574300.52 488289.31 396474.85 
 312628.09 230114.59 167212.39 128931.46 103172.67 77544.66 63443.34 49812.40 42691.67 36187.10 
 29106.07 24674.20 20413.31 16821.40 13712.64 11748.84 9797.27  7845.70  7016.52  6326.71  
 5796.71  5330.58  4863.18  4423.70  3902.71  3351.62  2822.50  2331.33  1889.60  1546.67  
 1253.56  995.87   738.61   518.83   344.66   242.97   175.47   135.96   113.89   92.00    
 77.88    66.74    60.26    55.59    49.13    43.84    39.81    36.19    32.75    29.62    
 27.68    25.87    24.10    22.94    21.70    20.55    19.38    18.03    16.04    12.22    
 10.21    9.42     8.93     8.58     8.26     7.87     7.47     7.04     6.55     5.98     
 5.35     4.71     4.15     3.69     3.56     3.60     3.72     3.87     4.02     4.20     
 4.38     4.58     4.79     5.02     5.26     5.52     5.78     6.05     6.34     6.65     
 6.96     7.27     7.60     7.95     8.30     8.67     9.05     9.43     9.83     10.25    
 10.66    11.10    11.54    12.00    12.48    12.97    13.47    13.96    14.46    14.98    
 15.52    16.07    16.65    17.25    17.86    18.49    19.17    19.91    20.70    21.54    
 22.42    23.39    24.42    25.61    26.96    28.48    30.12    32.00    34.11    36.53    
 39.33    42.55    46.27    50.56    55.62    61.75    69.02    77.49    87.54    99.13    
 113.14   128.91   146.46   165.45   186.32   208.91   233.64   258.39   282.87   306.78   
 329.16   349.91   368.45   384.36   397.27   406.49   412.27   413.60   411.52   406.09   
 397.65   386.04   372.26   357.06   340.10   321.16   301.84   282.00   261.80   241.47   
 226.52   
775516.75 775841.23 771395.54 758901.48 731214.97 680276.97 607509.68 526934.96 436108.11 346916.03 
 277486.92 208245.31 161829.97 125676.31 100586.69 82447.54 67838.47 56603.76 47990.47 41688.30 
 36051.39 31360.27 26867.05 22384.00 19113.38 16642.88 14689.52 13143.11 11925.38 10931.63 
 10060.34 9214.08  8490.37  7862.63  7268.17  6758.18  6274.66  5884.04  5508.51  5137.31  
 4793.87  4463.00  4169.95  3880.14  3587.20  3309.89  3051.77  2800.59  2549.40  2298.32  
 2058.21  1807.01  1549.27  1302.91  1056.58  826.43   629.73   481.30   381.53   309.17   
 258.90   208.75   170.64   137.41   112.56   93.55    78.57    66.21    56.16    47.26    
 39.99    34.36    29.76    26.48    23.62    21.46    19.00    16.14    11.84    10.22    
 9.43     8.42     7.18     5.55     3.95     3.22     3.27     3.37     3.48     3.61     
 3.76     3.91     4.09     4.29     4.51     4.74     4.98     5.23     5.50     5.78     
 6.05     6.34     6.64     6.96     7.28     7.62     7.97     8.35     8.74     9.15     
 9.56     9.99     10.46    10.93    11.40    11.90    12.42    12.94    13.45    13.96    
 14.50    15.08    15.67    16.27    16.89    17.56    18.28    19.00    19.82    20.68    
 21.60    22.61    23.68    24.81    26.08    27.49    29.16    31.01    33.08    35.43    
 38.06    41.06    44.87    49.27    54.58    61.08    68.73    78.00    88.89    101.77   
 117.81   133.86   152.00   172.43   194.03   216.75   240.44   263.73   287.50   310.11   
 331.35   350.64   367.46   382.32   393.87   402.66   407.94   409.81   408.28   403.53   
 396.30   386.29   373.41   358.02   341.57   324.37   306.08   287.82   267.98   248.18   
 226.52   
775516.75 775196.22 770761.91 759407.63 733406.04 682549.32 609458.89 525288.36 432374.25 342764.38 
 273683.23 204873.13 160706.16 125581.14 100242.06 81983.50 68245.05 57237.30 48400.65 41876.45 
 36375.41 31684.03 27594.42 24249.10 20914.78 18544.60 16744.41 15330.58 14225.94 13320.13 
 12488.89 11707.34 11077.52 10472.43 9935.81  9474.40  9059.18  8660.93  8302.94  7992.19  
 7690.74  7411.11  7156.74  6906.96  6645.04  6387.60  6108.13  5828.21  5542.68  5282.46  
 5035.92  4815.55  4615.75  4428.24  4241.09  4061.81  3883.34  3706.34  3520.38  3341.92  
 3165.80  2988.11  2810.88  2639.54  2468.27  2304.13  2135.97  1970.77  1810.81  1655.89  
 1506.46  1358.81  1219.01  1088.66  962.77   842.73   729.24   625.21   530.20   448.10   
 372.46   303.36   246.49   189.78   146.08   107.86   78.81    54.16    24.84    7.01     
 3.69     2.78     2.53     2.38     2.38     2.35     2.15     1.58     1.62     1.70     
 1.70     1.69     1.65     1.69     1.75     1.83     1.97     1.98     2.01     2.13     
 2.22     2.20     2.32     2.46     2.47     2.61     2.76     2.95     3.15     3.23     
 3.32     3.41     3.50     3.62     3.74     3.88     4.03     4.18     4.35     4.54     
 4.74     4.97     5.23     5.47     5.74     6.06     6.42     6.84     7.36     7.92     
 8.61     9.43     10.45    11.67    13.09    14.85    16.83    19.14    21.68    24.55    
 27.68    30.97    34.56    38.49    42.74    47.25    52.10    57.21    62.59    68.10    
 73.71    79.52    85.29    91.29    97.31    103.59   110.15   116.82   123.27   130.38   
 137.29   144.28   150.27   156.13   163.37   171.64   180.84   191.09   202.72   215.57   
 226.52   
775516.75 773188.36 766295.99 749757.46 715834.38 657747.20 574024.91 480615.01 390507.75 308898.07 
 241608.80 190175.83 152386.95 123849.19 103990.80 84200.18 70779.19 60683.68 52561.04 45782.20 
 39974.80 34644.09 30035.18 25732.87 22256.41 19575.09 17669.09 16303.78 15316.57 14485.03 
 13803.06 13188.75 12617.95 12145.03 11676.86 11339.73 11003.68 10711.42 10434.90 10198.01 
 9995.48  9800.40  9621.19  9423.55  9178.70  8912.88  8618.00  8324.47  8053.50  7791.42  
 7552.23  7323.62  7103.79  6890.77  6682.15  6470.02  6268.54  6059.62  5862.12  5650.87  
 5436.34  5227.10  5021.68  4813.92  4599.04  4386.45  4184.17  3989.49  3784.59  3564.97  
 3359.07  3163.58  2973.44  2767.81  2574.27  2389.94  2221.50  2047.67  1885.25  1728.48  
 1584.80  1457.06  1334.98  1217.22  1108.42  999.70   903.11   818.58   745.70   681.52   
 627.38   572.13   519.85   472.88   428.55   387.98   351.14   318.34   289.58   263.62   
 239.22   216.66   198.34   181.66   166.50   151.68   138.27   125.30   112.41   99.52    
 88.24    78.61    70.00    61.56    52.99    45.24    37.84    31.31    25.56    21.33    
 13.19    4.60     3.15     3.06     3.12     3.26     3.43     3.58     3.76     3.94     
 4.31     4.81     5.33     5.91     6.72     7.36     7.50     7.18     7.18     7.62     
 8.11     8.81     9.66     10.65    12.66    14.08    15.84    18.03    20.43    23.18    
 26.26    29.55    32.46    35.53    39.69    44.08    48.71    53.42    58.27    63.26    
 68.23    73.35    78.49    83.85    89.29    94.91    100.58   106.24   112.14   118.78   
 124.45   130.83   137.45   144.24   152.20   160.97   171.06   182.92   196.21   211.16   
 226.52   
775516.75 772343.85 764298.32 746513.60 710148.39 650162.45 566148.13 472354.95 382261.88 306211.87 
 251141.58 196277.82 160205.21 132490.20 110773.99 94790.60 82199.44 71936.57 63387.04 55995.81 
 49453.67 43143.68 37737.49 32896.00 28663.56 25493.56 22334.47 20092.27 18352.36 16976.66 
 15884.74 14993.75 14258.17 13697.93 13251.19 12873.38 12539.85 12240.15 11959.73 11672.97 
 11416.75 11170.01 10935.78 10713.27 10513.16 10299.29 10055.88 9789.11  9485.35  9196.17  
 8936.57  8705.01  8472.22  8235.65  7992.18  7756.04  7538.95  7327.33  7109.63  6879.10  
 6633.35  6370.60  6106.38  5852.50  5603.56  5346.09  5096.26  4856.99  4606.13  4344.88  
 4073.86  3813.28  3566.28  3331.20  3101.27  2873.21  2651.40  2429.84  2232.99  2043.74  
 1868.03  1700.76  1555.39  1423.87  1307.70  1198.27  1100.44  1013.37  937.76   874.17   
 819.07   757.38   696.51   640.13   589.62   545.46   506.29   470.95   440.06   411.12   
 385.72   364.92   347.45   331.50   317.61   304.75   293.05   282.52   273.10   265.00   
 257.64   250.43   245.54   238.15   230.76   223.38   216.50   209.11   201.80   194.67   
 187.15   179.07   170.81   162.33   153.27   144.42   134.93   125.14   115.71   104.13   
 90.95    74.77    50.79    28.91    17.75    14.60    13.96    7.86     4.48     4.69     
 5.09     5.64     6.32     7.20     8.38     9.80     11.54    13.55    16.17    19.29    
 22.63    26.54    34.65    46.21    36.10    40.27    44.91    49.76    54.84    60.03    
 65.21    70.24    75.18    80.05    84.77    89.42    93.93    98.46    103.08   107.84   
 112.61   118.24   124.65   131.71   139.68   148.76   159.42   171.19   185.22   201.56   
 226.52   
775516.75 770598.70 759637.57 736800.05 693942.30 626428.56 539531.65 447973.63 362375.65 290216.39 
 233527.69 191463.60 159617.76 135988.11 116707.48 103452.55 90243.31 80940.49 73005.11 65286.44 
 58432.40 52143.22 46180.73 40691.94 35945.05 31954.09 28562.08 25771.44 23334.21 21217.92 
 19288.97 17702.89 16406.28 15445.70 14743.09 14207.49 13724.29 13296.48 12917.26 12564.79 
 12243.94 11950.84 11708.83 11467.30 11225.76 10977.09 10702.90 10460.34 10236.34 9973.07  
 9693.93  9402.79  9134.19  8882.50  8638.91  8382.28  8115.18  7830.50  7535.32  7235.67  
 6939.18  6651.46  6363.03  6088.09  5812.49  5545.63  5280.04  5006.12  4714.61  4413.41  
 4133.22  3872.71  3613.05  3351.11  3089.54  2851.02  2617.10  2381.23  2168.01  1970.89  
 1797.39  1636.42  1481.13  1339.40  1222.81  1127.39  1032.17  945.88   877.22   821.05   
 766.66   703.02   645.96   596.66   553.81   516.34   485.99   459.52   436.72   416.83   
 399.79   385.55   373.01   362.16   352.43   342.50   334.22   326.61   319.69   312.57   
 306.08   300.25   294.16   288.84   283.31   277.83   272.56   268.11   263.62   259.09   
 254.85   250.58   246.13   242.19   237.19   231.88   226.31   220.61   215.27   209.44   
 203.78   195.69   187.14   178.24   169.39   160.49   150.91   141.19   130.14   117.15   
 104.13   88.22    51.90    18.73    11.94    11.20    10.98    11.89    14.21    16.89    
 19.94    23.25    26.95    30.98    35.28    39.86    45.11    50.65    56.69    69.67    
 79.56    73.73    80.05    86.56    92.76    98.40    103.27   107.71   111.44   114.64   
 117.33   120.17   123.56   127.84   133.76   141.77   151.83   164.70   179.34   197.35   
 226.52   
775516.75 769655.11 757888.75 734290.81 688913.62 617063.01 529552.89 438046.97 356227.12 302714.64 
 249202.18 195949.62 166293.93 142798.37 124238.93 109590.68 97753.66 87909.67 79503.33 71698.54 
 64348.65 57469.50 50932.68 45195.93 40130.25 35779.32 32181.62 28955.66 26637.83 24320.00 
 22008.32 20304.50 19000.72 18000.60 17152.59 16389.11 15644.75 14938.86 14326.94 13828.22 
 13390.14 12974.04 12577.49 12217.65 11904.34 11625.71 11352.15 11070.71 10794.88 10489.17 
 10177.23 9876.45  9577.77  9257.38  8942.21  8638.86  8361.45  8091.32  7831.10  7568.84  
 7302.34  7046.23  6762.25  6473.64  6163.85  5836.84  5504.53  5159.95  4821.53  4500.84  
 4200.05  3901.36  3612.38  3337.89  3077.46  2830.48  2590.82  2351.36  2131.31  1934.29  
 1744.01  1573.38  1411.49  1281.97  1165.96  1066.44  978.18   899.13   837.31   785.07   
 734.36   674.95   618.65   569.39   528.41   496.42   468.68   445.38   424.93   406.75   
 393.19   382.17   373.34   365.09   357.95   351.55   345.66   339.91   334.89   329.88   
 324.56   319.71   315.17   310.87   305.86   301.26   296.07   291.09   286.41   281.57   
 277.25   272.54   268.64   264.31   260.06   255.51   251.01   246.11   240.90   235.68   
 230.47   225.78   220.92   215.93   210.63   204.97   199.74   192.47   185.44   177.95   
 169.01   159.99   150.27   135.41   121.70   109.47   101.99   80.40    25.66    23.60    
 25.20    25.20    26.21    30.26    34.90    39.89    45.39    51.31    57.85    64.82    
 72.45    80.11    89.59    114.41   99.06    105.25   110.93   116.12   120.08   123.42   
 126.06   128.19   129.62   131.74   135.13   141.10   149.79   161.85   177.05   195.91   
 226.52   
775516.75 767701.56 752972.67 724269.91 672440.01 592329.89 497629.16 406694.22 330562.35 269219.49 
 223691.50 189799.77 164108.52 143505.28 126659.37 115312.78 104007.90 92703.03 84793.79 77434.16 
 70312.21 63298.96 56614.31 50481.39 44937.65 40216.47 36256.55 32912.32 30147.06 27722.74 
 25585.69 23747.26 22314.10 21066.15 19938.23 18874.52 17807.37 16787.62 15901.07 15155.03 
 14493.21 13938.70 13523.28 13097.32 12675.19 12233.36 11736.07 11399.09 11063.41 10726.35 
 10378.20 10030.23 9693.85  9365.59  9064.20  8795.87  8523.43  8212.91  7882.86  7539.03  
 7204.72  6894.96  6588.94  6289.75  5981.82  5681.42  5389.08  5107.23  4816.65  4522.80  
 4220.11  3904.13  3605.70  3308.98  3043.86  2785.45  2533.49  2290.40  2070.59  1867.81  
 1686.38  1529.16  1391.35  1265.26  1169.47  1073.97  978.48   903.96   845.37   795.31   
 738.39   672.71   613.25   564.66   523.36   491.00   463.83   441.97   422.90   406.45   
 392.26   383.27   375.91   369.38   363.90   359.20   354.22   349.78   345.82   342.29   
 337.95   333.78   329.87   325.78   322.00   318.26   314.44   310.19   305.59   301.20   
 297.24   292.90   288.64   284.64   280.77   277.03   273.12   268.73   264.35   259.88   
 255.40   250.24   245.02   240.06   235.07   221.71   213.80   208.73   203.91   198.95   
 191.90   185.59   179.94   174.59   169.42   161.92   151.08   145.65   140.43   131.98   
 82.06    31.82    32.01    33.31    37.56    42.86    49.06    55.48    62.52    70.21    
 78.26    86.49    94.44    102.75   132.24   115.97   115.54   119.91   123.56   126.26   
 128.39   130.09   131.38   132.53   135.29   141.01   150.11   162.99   179.43   199.96   
 226.52   
775516.75 767178.39 752684.64 724899.11 671618.01 589751.31 494690.20 405007.58 328899.62 282983.66 
 237067.70 191377.12 166143.50 145671.02 128679.83 115092.18 104016.58 95137.60 87208.29 80164.27 
 73406.37 66746.52 60392.89 54593.74 49300.63 44764.25 40814.16 37389.06 34314.91 31555.37 
 29041.48 26759.41 25004.22 23253.32 21896.18 20600.68 19341.89 18178.61 17141.92 16223.38 
 15484.96 15048.64 14609.96 14056.95 13527.15 13031.98 12555.57 12073.83 11581.33 11092.06 
 10572.64 10105.71 9712.75  9352.78  8997.98  8695.62  8427.06  8173.70  7920.20  7653.37  
 7376.33  7081.24  6748.69  6393.63  6029.85  5692.40  5363.48  5045.52  4741.26  4444.49  
 4137.68  3828.34  3542.02  3273.44  3017.01  2773.66  2530.30  2287.26  2073.35  1878.51  
 1693.56  1537.35  1399.68  1279.01  1174.79  1078.69  991.19   918.59   862.10   811.60   
 753.14   684.74   624.53   573.31   530.89   497.15   469.85   447.53   428.22   411.18   
 397.81   388.89   381.81   376.42   372.15   367.93   364.01   360.35   356.70   353.70   
 350.43   347.42   344.33   341.10   337.57   334.31   331.39   328.20   324.67   320.71   
 317.01   313.53   310.00   306.51   302.45   298.05   293.74   289.47   285.32   280.66   
 275.60   270.34   264.94   259.44   253.87   244.32   234.77   225.28   220.31   214.92   
 209.70   204.12   198.49   192.68   187.14   181.12   175.42   170.34   165.32   158.37   
 142.01   46.23    35.53    38.11    40.79    45.34    51.82    58.58    65.72    73.46    
 81.92    89.98    97.97    105.96   119.40   144.88   117.62   121.36   124.52   126.93   
 128.76   130.46   131.76   133.08   135.62   140.61   149.99   162.86   179.86   200.87   
 226.52   
775516.75 765605.62 748525.91 715897.72 657098.04 570766.51 474342.22 386526.08 316447.64 260732.87 
 218394.66 186559.30 162136.77 142393.57 125913.31 114394.48 102913.27 91432.08 83266.95 75598.74 
 68268.72 61422.72 54907.04 48954.92 43811.05 39350.15 35662.72 32531.11 29986.71 27634.82 
 25519.12 23743.42 22316.62 21024.13 19899.81 18792.81 17733.69 16770.46 15925.71 15174.83 
 14520.21 13969.80 13511.76 13038.68 12605.21 12191.97 11812.72 11433.74 11054.76 10716.61 
 10374.85 10032.94 9717.60  9384.80  9086.89  8802.18  8513.16  8184.59  7843.59  7500.07  
 7155.32  6837.26  6529.80  6230.10  5932.88  5634.08  5344.13  5060.30  4772.49  4473.36  
 4179.38  3865.27  3562.32  3258.23  2992.78  2729.72  2482.79  2245.69  2026.40  1825.00  
 1643.11  1490.02  1356.52  1232.39  1132.91  1033.68  948.11   876.33   820.90   770.30   
 712.72   648.26   591.42   544.64   505.67   474.36   447.92   426.77   407.93   391.62   
 378.85   369.98   363.35   357.52   352.05   347.40   343.12   339.05   335.46   331.82   
 328.06   324.38   321.01   317.29   313.96   310.77   307.44   303.30   298.62   294.07   
 289.73   285.49   281.20   276.65   271.88   267.28   262.90   258.18   253.64   249.04   
 243.62   237.80   231.94   226.72   219.61   209.82   205.45   201.07   196.26   190.66   
 184.55   178.99   173.04   166.91   160.00   147.54   140.27   133.96   115.07   96.08    
 31.59    30.95    32.97    36.33    41.67    47.88    54.58    61.49    68.80    76.52    
 84.31    92.30    100.00   110.96   139.30   115.52   119.58   122.82   125.21   127.26   
 129.13   130.96   132.46   134.21   137.16   143.15   152.63   166.30   184.03   206.37   
 226.52   
775516.75 766428.91 750897.29 721657.91 666909.68 584885.07 490546.06 403581.16 330837.11 284565.67 
 238294.25 192227.77 164778.98 142908.58 124734.72 110519.28 98563.25 88726.12 79942.15 72131.56 
 64623.70 57643.88 51289.71 45745.34 40759.90 36654.66 33012.30 29851.26 27054.13 24761.04 
 22472.82 20668.00 19244.49 18159.52 17229.03 16407.17 15671.22 14974.07 14388.30 13882.98 
 13434.73 13040.04 12659.59 12316.92 11997.07 11698.64 11403.35 11100.72 10790.64 10465.17 
 10165.55 9871.71  9557.19  9231.29  8926.40  8631.32  8348.50  8079.46  7817.15  7543.27  
 7279.91  7019.88  6735.42  6429.89  6114.18  5782.66  5448.64  5107.86  4775.63  4451.32  
 4149.16  3845.23  3562.24  3278.28  3013.10  2768.75  2524.41  2280.34  2062.71  1867.04  
 1682.54  1510.35  1359.67  1233.49  1124.66  1029.27  941.62   866.64   808.78   758.84   
 706.29   646.13   591.57   541.83   502.63   471.18   445.50   423.28   403.83   387.68   
 375.84   365.50   356.90   349.14   342.26   335.94   330.06   324.58   319.36   314.50   
 309.80   305.15   300.68   296.42   292.15   287.20   282.68   278.19   273.37   268.80   
 263.94   258.89   254.16   249.73   245.63   240.04   234.45   229.29   224.43   219.85   
 215.15   210.32   205.09   200.08   194.47   188.63   180.74   173.31   166.38   158.61   
 151.52   142.36   129.77   121.25   112.80   102.22   70.96    23.45    20.51    21.92    
 23.16    26.36    31.16    36.45    42.23    48.46    55.03    61.80    69.17    76.78    
 84.45    93.43    115.35   102.19   106.90   111.47   115.69   119.42   122.77   125.86   
 128.25   130.13   132.53   135.28   139.31   145.01   153.45   165.98   182.89   203.79   
 226.52   
775516.75 766756.23 751145.04 722578.42 670668.34 593540.87 501146.38 413202.26 337343.03 276200.83 
 228198.80 191440.94 162587.06 140086.57 121442.98 108653.49 95908.41 86666.59 78686.31 71169.55 
 64144.81 57716.38 51565.22 45884.53 41140.23 37012.00 33325.03 30234.52 27307.82 24574.50 
 22054.87 19873.06 17974.26 16505.95 15381.43 14555.92 13920.98 13399.64 12968.45 12592.68 
 12253.42 11985.66 11718.59 11451.52 11220.92 10969.15 10712.33 10482.25 10244.67 10002.16 
 9738.41  9457.18  9194.42  8939.53  8677.82  8403.08  8114.84  7832.98  7536.56  7228.26  
 6921.89  6635.00  6348.28  6070.06  5791.94  5508.54  5228.74  4951.41  4665.58  4375.21  
 4086.03  3816.34  3549.96  3273.98  3016.52  2780.32  2538.65  2303.00  2091.33  1903.39  
 1730.67  1573.08  1425.75  1292.27  1192.86  1093.80  994.74   912.15   846.34   793.12   
 736.39   675.26   618.94   571.45   530.10   495.18   465.76   440.48   419.48   400.79   
 384.48   370.32   358.07   347.14   336.83   327.05   318.21   310.06   302.74   295.65   
 288.82   282.26   276.48   270.67   265.51   260.32   254.94   249.28   243.91   238.40   
 233.07   227.75   222.29   216.91   211.02   204.50   198.55   193.40   189.09   183.55   
 175.95   167.77   159.23   150.29   141.22   132.11   121.63   111.14   99.70    86.25    
 59.39    24.51    15.28    12.51    10.97    11.21    13.04    15.32    18.02    21.15    
 24.71    28.65    33.09    38.07    43.73    49.81    56.36    64.98    84.73    76.02    
 81.61    87.69    93.53    98.63    103.32   108.45   112.39   116.13   119.60   122.14   
 124.74   127.60   131.01   134.84   139.69   146.18   155.29   167.48   182.92   201.63   
 226.52   
775516.75 769022.17 756726.07 733573.31 691332.88 623826.57 539006.77 446675.36 363550.99 295906.44 
 248670.74 201591.23 168725.09 141987.62 121103.35 105392.87 93154.92 82780.02 74227.69 66516.03 
 59372.18 52690.62 46610.89 41093.41 36176.44 32058.16 28598.95 25809.27 23025.91 20752.61 
 18733.31 16970.17 15491.31 14402.44 13617.99 13023.21 12577.75 12225.68 11927.58 11641.37 
 11367.21 11118.15 10883.84 10651.52 10415.17 10181.15 9937.20  9676.28  9418.74  9173.24  
 8951.97  8726.93  8490.94  8253.12  8010.72  7779.74  7555.56  7322.74  7077.66  6824.41  
 6564.21  6298.76  6034.58  5774.85  5515.02  5255.01  5007.10  4753.96  4503.57  4245.43  
 3982.89  3725.31  3476.01  3242.19  3015.72  2795.01  2574.29  2353.86  2159.32  1973.75  
 1802.59  1640.75  1500.41  1372.18  1261.19  1155.54  1059.31  976.64   905.51   844.23   
 789.54   727.01   665.32   609.22   560.77   518.04   478.83   443.28   411.24   381.88   
 358.58   338.01   319.81   302.90   288.46   276.08   264.88   254.30   244.09   233.91   
 225.58   218.01   212.24   204.38   196.19   187.98   180.24   172.55   164.67   157.38   
 149.65   142.01   134.34   126.57   118.18   109.75   99.79    89.13    76.90    61.96    
 43.77    27.09    18.55    13.20    8.78     5.79     5.96     6.33     6.74     7.26     
 7.85     8.55     9.45     10.59    11.95    13.74    16.13    18.89    22.07    26.59    
 37.14    33.05    35.40    39.59    43.83    48.94    54.31    59.86    65.66    71.51    
 77.34    83.22    88.92    94.38    99.36    103.91   109.26   113.19   116.91   120.58   
 124.13   127.81   131.97   136.95   142.69   150.04   159.28   170.47   184.43   201.39   
 226.52   
775516.75 770370.12 759757.20 739290.49 702379.54 641176.15 556437.28 464966.51 381622.47 308955.64 
 249478.58 202129.49 166215.47 138515.32 117233.14 101329.12 85465.75 74172.53 64817.45 56772.24 
 49970.92 43497.94 37621.87 32381.31 27941.25 24162.48 21204.55 18878.16 16930.94 15400.48 
 14194.91 13233.10 12498.23 12014.41 11532.77 11051.12 10712.58 10420.39 10146.82 9901.49  
 9695.47  9493.89  9287.89  9061.09  8813.76  8566.25  8321.19  8079.81  7845.79  7617.94  
 7397.25  7194.31  6993.98  6798.96  6599.52  6391.49  6185.83  5981.82  5773.34  5559.13  
 5339.98  5127.89  4924.63  4719.82  4504.43  4288.94  4076.70  3874.67  3666.61  3453.63  
 3251.59  3056.57  2857.66  2659.00  2463.99  2279.60  2098.55  1925.68  1763.04  1609.05  
 1468.56  1344.06  1226.21  1113.21  1000.24  900.73   810.84   732.73   662.75   604.27   
 554.44   506.21   458.44   413.78   371.51   333.23   298.73   269.60   242.31   216.40   
 191.25   171.41   153.63   137.31   122.79   108.29   97.09    87.77    79.02    70.10    
 61.07    52.56    44.16    36.61    30.46    25.31    14.81    5.80     4.60     4.60     
 4.70     4.83     5.01     5.17     5.39     5.62     6.02     6.61     7.11     7.70     
 8.30     9.05     9.41     9.32     9.43     9.71     10.05    10.44    10.86    11.36    
 11.89    12.66    13.56    14.64    15.86    18.10    20.72    22.85    25.04    27.55    
 30.31    33.07    36.89    41.19    45.74    50.45    55.50    60.81    66.17    71.55    
 76.92    82.36    87.66    93.01    98.20    103.68   109.25   112.85   119.31   123.76   
 128.09   132.65   137.76   143.44   150.20   158.45   168.46   180.96   195.37   211.32   
 226.52   
775516.75 772181.99 765313.16 751921.84 722847.82 670057.80 598285.12 513251.08 424294.62 340101.07 
 267950.98 212042.55 169202.60 137492.31 113124.05 96775.31 80509.36 67813.69 57719.66 49435.68 
 42793.15 36937.44 31680.03 27274.72 23518.90 20216.28 17562.63 15503.55 13909.55 12596.37 
 11530.69 10830.59 10134.85 9552.36  9052.54  8612.23  8216.22  7867.10  7542.56  7251.54  
 7002.56  6778.46  6552.68  6334.75  6103.93  5863.93  5621.86  5383.70  5140.47  4916.07  
 4709.34  4518.73  4333.42  4159.56  3980.73  3803.81  3622.59  3446.03  3256.95  3059.07  
 2872.91  2686.58  2510.35  2340.13  2170.78  2010.47  1843.19  1679.37  1523.45  1373.52  
 1225.62  1087.98  950.45   821.60   701.27   591.57   487.93   394.13   314.19   245.12   
 187.26   137.78   98.71    59.75    33.61    11.36    6.54     5.68     5.35     5.14     
 4.94     4.85     4.81     4.75     4.78     4.81     4.60     4.56     4.78     4.98     
 5.13     5.31     5.52     5.77     6.02     6.27     6.53     6.77     7.03     7.34     
 7.58     7.90     8.28     8.56     8.93     9.35     9.77     10.24    10.68    11.13    
 11.56    12.03    12.50    12.98    13.47    14.00    14.56    15.09    15.66    16.30    
 16.91    17.54    18.23    18.95    19.68    20.51    21.45    22.58    23.94    25.55    
 27.56    29.94    32.99    36.99    42.00    48.21    55.83    64.96    75.99    89.81    
 105.74   123.40   142.53   162.63   183.46   205.61   229.95   254.32   276.35   296.57   
 315.75   333.53   348.79   361.11   371.11   378.04   381.68   383.24   380.76   375.74   
 367.98   358.33   347.43   334.85   322.27   307.83   293.06   278.09   262.35   246.81   
 226.52   
775516.75 773761.79 769312.93 760275.23 739883.91 698327.49 637799.57 563221.47 475485.24 384147.77 
 302879.02 244742.11 186770.57 148366.73 121150.70 98646.37 79358.88 66374.08 56347.40 48387.01 
 41440.78 35153.57 29766.68 25657.24 21552.29 17972.12 15144.49 12961.33 11277.16 9921.32  
 8697.63  7753.78  7035.24  6432.82  5900.22  5392.10  4972.47  4588.23  4270.00  3953.85  
 3690.14  3416.40  3181.64  2964.03  2713.24  2462.45  2211.61  1955.24  1684.27  1414.47  
 1150.63  914.87   714.71   576.44   477.11   397.28   327.55   277.63   227.71   177.96   
 146.83   121.49   100.14   81.68    67.98    55.78    46.88    39.93    34.86    30.50    
 26.66    24.04    21.43    18.31    11.99    11.08    10.16    9.33     8.56     7.86     
 7.05     6.29     5.43     4.47     3.62     3.31     3.36     3.47     3.60     3.73     
 3.89     4.05     4.22     4.41     4.62     4.84     5.07     5.31     5.55     5.81     
 6.06     6.32     6.61     6.90     7.20     7.50     7.83     8.15     8.51     8.86     
 9.23     9.62     10.03    10.45    10.89    11.37    11.85    12.34    12.83    13.32    
 13.82    14.34    14.89    15.44    16.00    16.57    17.20    17.88    18.54    19.28    
 20.05    20.85    21.69    22.55    23.47    24.53    25.72    27.08    28.66    30.45    
 32.49    34.94    38.08    41.95    46.69    52.47    59.63    68.36    78.75    91.23    
 105.57   123.12   140.69   160.88   182.21   204.63   227.86   250.45   273.79   295.68   
 316.40   335.01   351.27   365.49   376.63   384.91   390.04   391.73   390.25   385.63   
 378.05   368.51   357.16   344.05   329.70   314.84   299.20   282.92   265.32   247.83   
 226.52   
775516.75 774965.34 771170.67 764450.67 749729.10 720466.07 669613.94 600124.02 499086.60 390372.48 
 303345.99 227307.44 175011.76 136765.02 114631.72 92668.76 70705.79 56624.93 47982.23 39628.30 
 33818.66 28589.25 22461.48 19112.55 16216.35 13687.76 11725.23 10130.81 8540.11  7275.89  
 6257.16  5245.34  4147.40  3392.79  2727.97  2200.59  1801.31  1444.55  1140.91  862.15   
 583.69   382.10   261.91   195.11   152.68   123.43   103.80   84.28    72.64    62.96    
 55.07    48.53    43.44    39.09    35.98    32.87    30.03    27.57    26.04    24.55    
 23.11    21.91    20.19    15.61    10.95    10.23    9.59     9.08     8.60     8.19     
 7.82     7.50     7.22     6.90     6.60     6.29     5.99     5.68     5.35     5.00     
 4.67     4.32     4.03     3.83     3.78     3.82     3.95     4.11     4.27     4.45     
 4.64     4.84     5.05     5.28     5.51     5.77     6.05     6.32     6.60     6.90     
 7.21     7.52     7.84     8.18     8.52     8.86     9.21     9.57     9.94     10.33    
 10.72    11.14    11.55    11.98    12.42    12.89    13.36    13.82    14.30    14.79    
 15.28    15.78    16.32    16.85    17.39    17.93    18.51    19.13    19.76    20.44    
 21.15    21.90    22.75    23.69    24.71    25.88    27.29    28.89    30.74    32.86    
 35.27    38.06    41.42    45.51    50.38    56.19    63.05    71.40    81.62    93.53    
 107.26   122.96   140.79   160.26   181.57   203.75   228.02   252.32   275.71   298.53   
 320.16   339.86   357.23   371.90   383.48   391.83   396.52   397.68   395.40   390.09   
 382.32   371.63   359.34   345.40   330.39   313.74   296.66   278.50   259.65   240.83   
 226.52   
775516.75 776518.53 774248.69 770527.68 762520.60 744772.83 680588.14 593323.98 507981.76 412712.04 
 314408.22 244568.57 174933.95 129550.09 97671.39 76499.24 54951.89 45544.59 38921.13 34390.12 
 30331.42 26981.64 23631.86 20262.21 14562.02 11872.53 8736.95  6138.65  4955.48  3802.65  
 2649.83  1498.87  598.50   450.87   303.24   156.51   115.03   88.34    70.80    60.10    
 51.31    45.31    39.65    35.49    32.12    29.11    26.44    24.79    23.24    22.21    
 21.29    20.21    19.45    18.61    17.77    15.93    12.05    8.97     8.50     8.20     
 7.90     7.58     7.32     7.08     6.86     6.65     6.46     6.28     6.10     5.94     
 5.78     5.60     5.43     5.24     5.03     4.83     4.66     4.48     4.34     4.22     
 4.10     3.96     3.88     3.88     3.92     4.04     4.15     4.30     4.45     4.60     
 4.75     4.93     5.10     5.30     5.52     5.74     5.98     6.24     6.51     6.79     
 7.08     7.37     7.69     8.02     8.38     8.73     9.08     9.44     9.80     10.19    
 10.57    10.96    11.37    11.79    12.23    12.68    13.15    13.62    14.11    14.61    
 15.13    15.67    16.25    16.81    17.40    18.01    18.67    19.37    20.11    20.90    
 21.74    22.69    23.73    24.85    26.07    27.45    29.08    30.84    32.79    35.05    
 37.66    40.57    43.94    47.84    52.40    57.83    64.19    71.74    80.74    91.36    
 104.22   120.00   135.82   154.97   175.87   198.43   222.36   246.42   271.47   295.69   
 319.13   340.53   359.59   376.02   388.98   398.13   403.28   404.72   402.45   396.85   
 388.58   378.11   365.62   351.70   336.01   319.32   300.74   281.56   261.31   241.16   
 226.52   
775516.75 777386.56 776385.06 773388.71 766520.91 718085.69 654436.22 588560.22 503243.89 405921.63 
 309911.04 227733.89 162321.94 110722.45 87033.26 63640.35 52200.29 43847.72 37503.70 32606.90 
 23819.25 19172.38 14335.40 11114.66 7912.11  4709.56  2727.81  913.06   563.67   233.00   
 168.94   143.23   107.19   71.03    61.10    54.40    42.62    37.34    32.88    29.28    
 26.00    23.35    21.62    20.40    19.70    18.94    17.98    17.00    15.79    14.87    
 13.49    10.84    8.56     7.93     7.39     6.83     6.51     6.29     6.11     5.95     
 5.79     5.66     5.56     5.46     5.35     5.26     5.24     5.27     5.31     5.34     
 5.35     5.33     5.26     5.15     5.01     4.86     4.70     4.53     4.41     4.30     
 4.22     4.15     4.11     4.10     4.15     4.21     4.31     4.41     4.53     4.66     
 4.80     4.95     5.11     5.29     5.49     5.71     5.95     6.20     6.47     6.75     
 7.03     7.34     7.64     7.97     8.31     8.66     9.01     9.39     9.77     10.19    
 10.60    11.03    11.48    11.92    12.38    12.85    13.33    13.80    14.29    14.80    
 15.34    15.90    16.49    17.10    17.72    18.39    19.12    19.90    20.73    21.61    
 22.55    23.58    24.75    26.03    27.48    29.05    30.86    32.90    35.22    37.79    
 40.64    43.77    47.35    51.49    56.17    61.55    67.61    74.85    83.59    93.90    
 105.89   119.91   136.24   154.58   175.20   197.32   220.43   245.86   271.31   295.82   
 319.99   342.65   363.13   380.54   394.26   403.45   408.44   409.14   405.85   399.44   
 390.76   379.66   367.29   353.40   337.96   321.31   302.84   283.20   262.90   241.78   
 226.52   
775516.75 779072.49 779018.07 777269.81 771196.88 712001.79 650933.68 591819.35 507201.47 421218.70 
 331781.24 242343.78 153241.28 103802.90 81082.39 65125.02 52912.69 43695.11 35368.49 26617.17 
 17889.38 12244.20 9520.92  5665.81  3248.81  850.09   499.11   151.25   134.91   114.50   
 85.01    46.00    29.04    22.30    19.00    17.20    15.72    14.66    14.00    13.27    
 12.49    11.67    11.13    10.40    9.66     9.17     8.88     8.55     7.60     6.30     
 5.92     5.74     5.50     5.18     4.94     4.84     4.73     4.63     4.48     4.58     
 5.04     5.31     5.30     5.17     4.93     4.68     4.44     4.20     4.02     3.82     
 3.67     3.57     3.50     3.48     3.44     3.43     3.43     3.43     3.43     3.44     
 3.46     3.48     3.52     3.59     3.68     3.78     3.88     4.01     4.13     4.28     
 4.43     4.57     4.74     4.91     5.12     5.33     5.55     5.80     6.06     6.35     
 6.63     6.92     7.22     7.50     7.80     8.13     8.47     8.83     9.19     9.57     
 9.95     10.35    10.78    11.23    11.69    12.19    12.69    13.21    13.72    14.27    
 14.84    15.45    16.09    16.75    17.41    18.10    18.83    19.60    20.43    21.32    
 22.29    23.35    24.51    25.80    27.24    28.88    30.76    32.93    35.27    37.97    
 41.05    44.43    48.21    52.43    57.16    62.57    68.63    75.67    83.76    93.58    
 105.22   120.05   134.92   153.23   173.44   195.45   219.09   243.14   268.17   293.02   
 317.14   340.41   361.95   381.65   397.43   408.92   415.62   417.67   415.43   409.36   
 400.08   388.56   376.11   362.24   347.32   331.21   312.30   292.48   270.78   248.34   
 226.52   
775516.75 779440.45 779442.58 777900.38 772111.10 709297.11 647115.61 581753.17 496378.10 413128.89 
 313439.88 224579.61 139796.28 113441.81 87724.96 62008.11 50083.10 40927.32 27641.17 20226.94 
 15721.63 11746.83 7777.87  3808.90  1383.88  920.82   478.64   36.46    23.23    19.43    
 17.81    16.25    14.90    13.61    12.08    10.59    9.29     8.22     7.57     7.31     
 7.12     7.09     6.90     6.56     6.33     6.24     6.19     5.98     5.97     5.81     
 5.30     4.89     4.58     4.30     4.23     4.11     4.04     4.03     4.00     3.97     
 3.93     3.92     3.90     3.87     3.87     3.88     3.88     3.88     3.88     3.89     
 3.89     3.89     3.89     3.90     3.90     3.90     3.90     3.89     3.87     3.85     
 3.85     3.86     3.86     3.92     3.98     4.06     4.17     4.28     4.40     4.52     
 4.68     4.83     5.01     5.22     5.42     5.62     5.86     6.09     6.33     6.58     
 6.80     7.07     7.33     7.60     7.92     8.26     8.60     8.96     9.33     9.70     
 10.10    10.53    10.96    11.43    11.91    12.40    12.89    13.42    13.98    14.57    
 15.18    15.80    16.46    17.16    17.85    18.55    19.29    20.10    20.96    21.88    
 22.85    23.90    25.07    26.41    27.94    29.64    31.55    33.68    36.13    38.96    
 42.11    45.65    49.60    54.03    59.02    64.60    70.88    77.95    86.23    96.10    
 107.83   121.44   137.12   155.34   175.57   197.37   220.73   245.98   271.25   295.83   
 319.63   342.17   363.52   382.59   398.84   410.27   417.03   418.92   416.10   409.35   
 399.19   387.09   373.64   359.31   344.72   328.62   311.16   292.05   271.46   249.51   
 226.52   
