IESNA:LM-63-2002
[TEST] 1
[TESTLAB] AOK
[TESTDATE] 2022-05-13
[ISSUEDATE] 2022-05-13 18:23:58
[NEARFIELD] 
[LAMPPOSITION] 0,0
[OTHER] EVERFINE GO-2000A_V1 SYSTEM
[MANUFAC] AOK
[LUMCAT] A
[LUMINAIRE] AOK-400WiSF-HVY-S5-00-5070-30D-P
[LAMPCAT] B
[LAMP] 5050
[BALLAST] E
[BALLASTCAT] F
[OTHER] 
[OTHER] Gamma(deg)    Fz(lm)      Ft(lm)     %Lum    %Lamp
[OTHER]   0- 10     11187.01    11187.01    19.98    19.98
[OTHER]  10- 20     16861.75    28048.76    50.09    50.09
[OTHER]  20- 30     10307.24    38356.00    68.50    68.50
[OTHER]  30- 40      7249.24    45605.24    81.44    81.44
[OTHER]  40- 50      4588.86    50194.11    89.64    89.64
[OTHER]  50- 60      2623.25    52817.36    94.32    94.32
[OTHER]  60- 70      1553.70    54371.06    97.10    97.10
[OTHER]  70- 80       741.47    55112.53    98.42    98.42
[OTHER]  80- 90       304.64    55417.17    98.97    98.97
[OTHER]  90-100       155.21    55572.38    99.24    99.24
[OTHER] 100-110       106.23    55678.61    99.43    99.43
[OTHER] 110-120        84.19    55762.80    99.58    99.58
[OTHER] 120-130        65.31    55828.11    99.70    99.70
[OTHER] 130-140        50.15    55878.26    99.79    99.79
[OTHER] 140-150        41.93    55920.19    99.86    99.86
[OTHER] 150-160        38.43    55958.62    99.93    99.93
[OTHER] 160-170        27.36    55985.98    99.98    99.98
[OTHER] 170-180         9.84    55995.82   100.00   100.00
[OTHER] 
TILT=NONE
1 55996 1 181 25 1 2 0.150 0.200 0.000
1.000 1 402.11
0.0    1.0    2.0    3.0    4.0    5.0    6.0    7.0    8.0    9.0    
 10.0   11.0   12.0   13.0   14.0   15.0   16.0   17.0   18.0   19.0   
 20.0   21.0   22.0   23.0   24.0   25.0   26.0   27.0   28.0   29.0   
 30.0   31.0   32.0   33.0   34.0   35.0   36.0   37.0   38.0   39.0   
 40.0   41.0   42.0   43.0   44.0   45.0   46.0   47.0   48.0   49.0   
 50.0   51.0   52.0   53.0   54.0   55.0   56.0   57.0   58.0   59.0   
 60.0   61.0   62.0   63.0   64.0   65.0   66.0   67.0   68.0   69.0   
 70.0   71.0   72.0   73.0   74.0   75.0   76.0   77.0   78.0   79.0   
 80.0   81.0   82.0   83.0   84.0   85.0   86.0   87.0   88.0   89.0   
 90.0   91.0   92.0   93.0   94.0   95.0   96.0   97.0   98.0   99.0   
 100.0  101.0  102.0  103.0  104.0  105.0  106.0  107.0  108.0  109.0  
 110.0  111.0  112.0  113.0  114.0  115.0  116.0  117.0  118.0  119.0  
 120.0  121.0  122.0  123.0  124.0  125.0  126.0  127.0  128.0  129.0  
 130.0  131.0  132.0  133.0  134.0  135.0  136.0  137.0  138.0  139.0  
 140.0  141.0  142.0  143.0  144.0  145.0  146.0  147.0  148.0  149.0  
 150.0  151.0  152.0  153.0  154.0  155.0  156.0  157.0  158.0  159.0  
 160.0  161.0  162.0  163.0  164.0  165.0  166.0  167.0  168.0  169.0  
 170.0  171.0  172.0  173.0  174.0  175.0  176.0  177.0  178.0  179.0  
 180.0  
0.0    15.0   30.0   45.0   60.0   75.0   90.0   105.0  120.0  135.0  
 150.0  165.0  180.0  195.0  210.0  225.0  240.0  255.0  270.0  285.0  
 300.0  315.0  330.0  345.0  360.0  
130560.75 128493.68 128170.85 127894.58 116672.77 100534.96 88183.23 76429.24 61042.61 52271.84 
 38389.41 26771.66 15639.33 12456.57 9360.57  6264.57  3168.57  72.58    25.03    20.37    
 17.74    15.94    14.63    12.91    11.31    10.13    9.30     8.82     8.76     8.80     
 8.56     6.99     6.01     5.61     5.61     5.73     5.93     6.09     5.86     5.72     
 5.53     5.44     5.29     5.22     4.96     4.82     4.89     4.91     4.76     4.48     
 4.25     4.21     4.09     4.01     3.96     3.94     3.80     3.69     3.59     3.47     
 3.37     3.33     3.30     3.23     3.16     3.07     2.99     2.92     2.85     2.78     
 2.70     2.65     2.60     2.57     2.55     2.54     2.53     2.53     2.53     2.55     
 2.60     2.65     2.70     2.80     2.98     3.14     3.26     3.34     3.44     3.53     
 3.63     3.76     3.86     3.92     3.99     4.08     4.21     4.36     4.55     4.78     
 5.05     5.34     5.65     5.99     6.38     6.77     7.19     7.60     8.04     8.52     
 9.01     9.51     10.05    10.64    11.29    11.97    12.71    13.51    14.39    15.32    
 16.30    17.29    18.41    19.62    20.89    22.22    23.67    25.19    26.83    28.55    
 30.32    32.19    34.11    36.15    38.31    40.61    42.99    45.53    48.21    51.12    
 54.33    57.78    61.60    65.74    70.26    75.19    80.47    85.94    91.64    97.70    
 104.05   110.39   116.63   122.64   128.41   133.98   139.36   144.29   148.77   152.92   
 156.85   160.35   163.10   165.09   166.19   166.27   165.47   163.55   160.63   157.14   
 152.91   148.31   143.62   138.66   133.77   128.58   123.30   117.68   111.66   104.80   
 96.86    
130560.75 127842.68 127376.89 126927.60 123348.20 103013.81 92520.85 81799.02 66806.45 58606.66 
 43788.74 33001.25 22213.76 11426.27 733.78   608.18   545.64   279.27   222.70   205.60   
 188.51   171.05   108.59   142.78   112.28   61.72    33.07    24.71    19.44    16.32    
 13.93    11.92    10.01    8.53     7.85     7.39     7.13     7.04     7.04     6.85     
 6.53     6.27     5.97     5.72     5.52     5.30     5.06     4.87     4.67     4.44     
 4.21     4.08     3.94     3.80     3.65     3.50     3.35     3.23     3.13     3.05     
 2.96     2.88     2.82     2.74     2.69     2.63     2.59     2.54     2.50     2.45     
 2.41     2.35     2.29     2.29     2.28     2.27     2.26     2.25     2.24     2.25     
 2.27     2.29     2.32     2.37     2.42     2.49     2.57     2.66     2.75     2.86     
 2.99     3.12     3.25     3.38     3.52     3.69     3.87     4.06     4.28     4.52     
 4.78     5.06     5.37     5.69     6.04     6.40     6.78     7.18     7.62     8.10     
 8.59     9.10     9.65     10.25    10.88    11.56    12.28    13.05    13.86    14.76    
 15.74    16.78    17.90    19.08    20.29    21.64    23.09    24.62    26.21    27.90    
 29.64    31.47    33.40    35.40    37.50    39.69    42.04    44.55    47.19    50.05    
 53.21    56.64    60.38    64.50    68.93    73.74    78.83    84.29    89.98    96.03    
 102.25   108.47   114.55   120.71   126.58   132.23   137.57   142.49   147.24   151.55   
 155.58   159.24   162.11   164.29   165.56   165.83   165.22   163.65   161.16   158.08   
 154.37   150.23   146.00   141.62   137.06   132.33   127.04   121.10   114.66   107.63   
 96.86    
130560.75 127945.82 127278.41 126719.03 125911.84 112903.81 98425.11 87802.36 78591.28 62624.53 
 54707.37 41702.81 32777.22 22619.41 14314.49 10869.68 7475.32  4080.96  686.60   550.83   
 348.10   228.42   237.79   171.66   154.00   152.53   131.37   110.00   88.63    66.88    
 65.56    54.63    44.83    44.96    38.08    32.27    33.11    27.46    26.43    24.25    
 24.19    23.55    21.38    18.51    17.98    16.02    14.57    13.35    12.70    11.03    
 9.48     8.78     7.24     6.15     5.58     5.32     5.09     4.74     4.34     4.00     
 3.68     3.41     3.20     3.06     2.93     2.78     2.63     2.50     2.41     2.33     
 2.27     2.22     2.19     2.17     2.14     2.12     2.10     2.07     2.05     2.04     
 2.04     2.03     2.06     2.12     2.19     2.27     2.36     2.46     2.57     2.70     
 2.83     2.98     3.14     3.31     3.49     3.68     3.88     4.10     4.32     4.55     
 4.80     5.05     5.32     5.59     5.90     6.23     6.59     6.96     7.37     7.81     
 8.29     8.79     9.32     9.90     10.54    11.21    11.91    12.68    13.52    14.41    
 15.35    16.33    17.42    18.58    19.83    21.09    22.44    23.91    25.43    27.03    
 28.73    30.45    32.26    34.15    36.22    38.46    40.84    43.37    46.07    49.00    
 52.13    55.51    59.35    63.60    68.16    73.00    78.12    83.40    89.00    94.96    
 101.07   107.15   113.13   118.91   124.62   130.28   135.70   140.76   145.76   150.39   
 154.34   157.66   160.32   162.21   163.43   163.86   163.41   162.21   160.43   158.01   
 155.09   151.75   148.19   144.62   140.29   135.55   130.02   124.35   118.43   112.33   
 96.86    
130560.75 128462.17 126892.02 126242.60 125431.40 124107.70 116059.08 100124.74 89653.11 77994.94 
 70128.55 56949.21 46619.54 40756.74 29594.65 22966.54 16364.43 12485.91 6837.83  1229.84  
 1011.22  744.84   489.38   359.05   312.12   252.16   192.33   146.39   112.37   92.93    
 80.97    71.70    64.66    58.41    53.25    48.50    43.73    40.16    36.39    32.71    
 29.23    25.34    22.64    21.03    20.06    18.91    17.94    16.90    15.80    14.59    
 13.36    12.25    11.16    10.10    9.16     8.40     7.83     7.35     6.88     6.43     
 6.03     5.63     5.26     4.92     4.65     4.42     4.19     3.97     3.75     3.52     
 3.28     3.07     2.87     2.70     2.55     2.42     2.29     2.19     2.10     2.02     
 1.93     1.90     1.90     1.93     1.99     2.07     2.15     2.25     2.36     2.48     
 2.60     2.74     2.88     3.04     3.21     3.38     3.55     3.74     3.94     4.15     
 4.37     4.60     4.85     5.13     5.42     5.72     6.06     6.42     6.81     7.22     
 7.70     8.20     8.73     9.26     9.84     10.47    11.16    11.89    12.66    13.45    
 14.30    15.27    16.27    17.31    18.36    19.52    20.74    22.04    23.42    24.89    
 26.41    28.03    29.78    31.60    33.52    35.61    37.89    40.31    42.85    45.68    
 48.83    52.19    55.81    59.79    64.03    68.67    73.54    78.71    83.99    89.67    
 95.46    101.26   107.03   113.02   118.89   124.59   130.12   135.19   140.03   144.38   
 148.23   151.55   154.25   156.34   157.81   158.71   158.93   158.51   157.49   156.01   
 154.14   151.70   149.37   146.33   142.73   138.78   134.35   129.06   123.85   118.68   
 96.86    
130560.75 129111.46 127259.81 126068.43 125120.11 122823.13 119379.88 115156.82 111289.39 98538.64 
 85210.54 75912.40 67139.85 57216.84 50171.44 40997.53 31527.88 26158.09 22402.79 15808.71 
 12231.09 9588.71  6956.88  5761.08  3823.44  1283.14  1012.73  766.19   570.26   416.74   
 313.33   239.80   197.75   170.77   147.78   126.34   110.02   93.75    80.67    69.40    
 59.73    51.54    45.12    39.45    34.94    31.29    27.97    25.39    22.84    20.19    
 17.14    14.59    13.02    12.12    11.37    10.67    10.08    9.56     9.06     8.56     
 8.07     7.69     7.33     6.97     6.69     6.41     6.15     5.93     5.75     5.57     
 5.43     5.26     5.07     4.86     4.61     4.37     4.09     3.78     3.48     3.17     
 2.86     2.51     2.19     2.07     2.06     2.10     2.18     2.27     2.37     2.47     
 2.58     2.71     2.84     2.98     3.13     3.29     3.46     3.63     3.83     4.04     
 4.26     4.50     4.75     5.02     5.32     5.63     5.96     6.31     6.68     7.08     
 7.52     7.97     8.45     8.95     9.50     10.08    10.69    11.34    12.06    12.81    
 13.59    14.42    15.33    16.27    17.25    18.25    19.37    20.59    21.85    23.20    
 24.61    26.08    27.62    29.26    31.09    33.11    35.24    37.57    40.10    42.82    
 45.73    48.93    52.40    56.36    60.64    65.16    69.93    74.84    79.92    85.24    
 90.95    96.68    102.39   107.97   113.34   118.52   123.82   128.88   133.56   137.83   
 141.69   145.34   148.42   151.10   153.27   154.93   156.04   156.58   157.15   156.41   
 154.86   153.20   151.65   149.19   146.41   143.24   139.68   135.60   131.03   126.63   
 96.86    
130560.75 129906.37 128870.59 127437.99 125630.85 122474.19 118880.56 115241.60 111382.63 106150.18 
 100981.09 95345.05 88017.42 80886.65 73306.33 65634.50 58263.62 49034.67 40858.88 33811.12 
 28399.39 25040.66 21685.33 18749.14 16204.92 14174.36 12735.86 11300.40 9803.65  7913.39  
 6784.66  5928.07  5168.31  4479.22  3641.71  3058.19  2673.41  2287.58  1788.40  1460.16  
 1192.98  932.75   668.45   513.30   424.04   340.83   267.14   193.77   155.67   123.55   
 98.65    80.61    66.97    55.94    48.55    41.84    36.58    32.48    28.65    25.73    
 23.27    21.43    19.82    18.12    16.58    14.90    13.30    12.26    11.90    11.67    
 11.51    11.32    11.18    10.93    10.71    10.50    10.36    10.15    9.93     9.54     
 8.79     7.70     6.24     4.51     2.15     1.72     1.77     1.83     1.91     1.98     
 2.07     2.16     2.26     2.37     2.49     2.62     2.76     2.90     3.07     3.24     
 3.42     3.60     3.81     4.04     4.27     4.52     4.79     5.07     5.39     5.72     
 6.08     6.46     6.89     7.36     7.85     8.35     8.89     9.44     10.01    10.64    
 11.30    12.03    12.80    13.60    14.41    15.31    16.29    17.32    18.39    19.53    
 20.74    22.02    23.41    24.89    26.46    28.15    30.03    32.03    34.22    36.62    
 39.35    42.24    45.45    48.94    52.71    56.91    61.29    65.96    70.86    76.07    
 81.42    86.85    92.23    97.86    103.39   108.88   114.32   119.52   124.70   129.62   
 134.31   138.71   142.76   146.54   149.85   152.76   155.09   157.49   158.69   159.18   
 158.66   158.14   157.51   155.80   153.63   151.10   148.16   144.71   140.77   136.72   
 96.86    
130560.75 130436.18 130193.21 129568.16 128527.06 125891.51 122354.18 118635.59 114854.09 109687.74 
 104424.65 98578.58 92302.15 85523.66 78163.64 70163.81 62565.54 55680.86 49628.64 43578.31 
 38416.58 33993.80 30599.00 28032.19 25993.99 23955.79 21922.11 20268.78 18898.84 17580.27 
 16233.28 15097.94 13986.53 13061.67 12126.70 11287.95 10565.99 9846.28  9147.50  8466.94  
 7843.61  7243.39  6680.60  6113.55  5597.47  5147.88  4723.99  4316.13  3916.47  3536.23  
 3214.53  2924.65  2663.15  2402.06  2180.65  1994.23  1818.23  1661.32  1521.84  1383.14  
 1259.99  1142.64  1039.76  942.21   849.73   762.69   681.62   608.91   538.57   473.15   
 414.69   363.85   318.64   277.59   240.81   204.09   173.61   148.66   128.10   111.24   
 95.59    81.43    69.46    58.09    46.96    33.46    7.25     2.97     1.28     1.07     
 1.01     1.00     0.99     0.89     0.90     0.90     0.92     0.93     0.95     0.98     
 1.00     1.02     1.04     1.06     1.09     1.12     1.15     1.19     1.22     1.27     
 1.30     1.34     1.39     1.45     1.50     1.56     1.64     1.71     1.79     1.88     
 1.98     2.08     2.19     2.32     2.46     2.61     2.77     2.95     3.14     3.35     
 3.58     3.83     4.11     4.41     4.73     5.08     5.47     5.89     6.35     6.89     
 7.46     8.08     8.73     9.46     10.23    11.10    12.03    13.03    14.06    15.20    
 16.40    17.64    18.96    20.34    21.77    23.29    24.88    26.60    28.42    30.34    
 32.32    34.40    36.54    38.78    41.18    43.69    46.32    49.29    52.56    55.25    
 58.71    62.29    66.78    71.67    76.80    82.17    87.71    93.32    99.19    105.23   
 96.86    
130560.75 131315.42 131843.48 131851.52 131254.07 129307.82 126371.32 122848.64 119134.78 114708.06 
 109911.32 104336.63 98348.04 91703.53 84559.30 77035.28 69970.91 63238.12 56958.71 50877.18 
 45291.28 40804.45 37192.97 34098.99 31645.94 29435.43 27578.92 25895.90 24331.94 22828.38 
 21428.08 20151.20 18958.44 17845.46 16796.42 15830.96 14893.86 14063.80 13272.34 12550.06 
 11741.61 11063.10 10385.83 9725.29  9083.74  8463.99  7876.08  7294.06  6770.63  6288.97  
 5835.74  5408.70  5027.14  4674.06  4367.29  4096.99  3840.64  3606.05  3405.72  3220.10  
 3031.79  2860.77  2696.62  2534.13  2376.87  2229.26  2084.55  1949.48  1815.69  1682.72  
 1560.18  1446.55  1341.29  1238.61  1145.19  1051.86  958.53   876.83   802.02   733.22   
 667.41   609.17   552.46   499.97   455.81   415.61   379.67   348.94   321.76   298.96   
 279.92   262.02   243.45   226.86   211.27   197.16   184.09   172.72   162.10   151.65   
 142.59   134.14   126.73   119.33   111.92   105.70   100.27   95.20    90.50    86.73    
 82.74    79.12    76.02    72.90    69.41    66.21    63.16    59.86    56.80    53.79    
 50.97    47.87    44.99    42.38    39.45    36.51    33.54    30.53    27.20    23.67    
 19.72    15.03    11.30    8.65     6.81     5.28     4.13     3.91     4.18     4.56     
 4.98     5.46     5.99     6.54     7.14     7.79     8.51     9.26     10.05    10.90    
 11.78    12.71    13.67    14.71    15.80    16.94    18.13    19.42    20.82    22.26    
 23.77    25.38    27.13    29.02    31.13    33.35    35.76    38.24    41.03    44.66    
 47.92    51.16    55.48    60.17    65.50    71.16    77.14    83.43    89.95    96.69    
 96.86    
130560.75 132088.19 133269.77 133939.64 134112.58 133697.78 132384.37 130271.54 127701.95 124558.61 
 120573.65 115949.15 110350.55 103575.50 95920.80 88413.69 80695.63 73176.05 66057.87 59457.38 
 53485.42 48788.68 44944.87 41690.46 38800.97 36019.87 33718.30 31534.36 29599.50 27687.35 
 26010.00 24456.32 22903.96 21476.79 20231.20 19053.68 17906.70 16904.18 15954.70 14987.55 
 14081.06 13254.78 12460.29 11738.06 11057.00 10327.58 9684.52  9021.37  8389.55  7797.54  
 7252.41  6741.90  6246.96  5780.14  5356.00  4992.38  4662.13  4375.84  4113.86  3874.62  
 3661.22  3464.22  3266.10  3074.41  2885.15  2726.25  2567.35  2408.52  2256.03  2105.71  
 1960.94  1821.49  1683.26  1556.75  1436.78  1320.00  1209.23  1105.68  1010.67  922.80   
 836.22   753.40   682.24   619.21   562.10   509.56   467.31   434.53   404.83   373.44   
 352.94   333.13   313.64   295.08   278.86   264.40   251.44   238.49   225.56   214.73   
 205.32   196.86   188.88   181.50   174.56   168.65   162.70   157.30   152.29   147.70   
 143.51   139.61   135.67   131.73   128.23   124.85   121.58   118.54   115.31   112.28   
 109.50   106.84   104.24   101.65   99.07    96.57    94.06    91.35    88.88    86.23    
 83.43    81.04    78.04    75.42    72.90    70.36    67.63    64.46    61.50    58.68    
 55.61    52.71    49.28    45.96    43.33    39.41    35.28    32.83    16.45    11.50    
 9.75     9.57     10.37    11.38    12.44    13.54    14.67    15.88    17.18    18.53    
 19.92    21.29    22.72    24.34    26.11    28.03    30.12    32.36    34.73    37.39    
 40.28    44.04    48.22    52.17    57.58    63.18    69.36    75.98    83.16    90.40    
 96.86    
130560.75 132657.64 134319.66 135799.71 137072.11 138110.01 138800.80 138506.51 136646.81 133631.94 
 129703.53 124950.93 119208.39 112593.47 105234.01 97273.81 89223.93 81151.52 73233.25 65589.65 
 59302.95 54102.10 49917.19 46359.22 43115.64 40243.34 37580.18 35163.21 32891.84 30732.73 
 28883.49 27049.05 25321.67 23785.41 22345.92 21014.25 19790.51 18567.62 17482.56 16359.98 
 15288.45 14272.84 13313.21 12365.96 11566.11 10767.55 9968.99  9313.15  8709.51  8126.77  
 7591.10  7116.50  6688.64  6293.73  5907.17  5543.16  5199.83  4888.43  4609.84  4338.34  
 4099.07  3838.23  3610.22  3399.79  3197.55  3003.02  2813.78  2629.80  2447.88  2273.61  
 2112.26  1960.67  1816.38  1675.36  1542.00  1417.54  1293.97  1187.45  1081.08  974.71   
 886.23   803.79   725.90   655.38   595.17   545.34   501.32   463.28   424.90   396.41   
 376.32   356.86   337.58   319.30   303.36   288.61   276.63   266.02   257.19   249.29   
 241.82   235.14   229.07   223.62   218.29   213.06   208.49   204.38   200.50   196.92   
 193.34   190.07   186.75   183.18   180.17   177.29   174.32   171.66   168.87   166.04   
 163.12   160.20   157.49   154.91   151.69   148.77   145.54   142.53   139.44   136.26   
 132.90   129.98   126.38   122.78   119.51   115.87   112.53   109.16   105.47   101.39   
 97.47    92.79    88.13    84.04    80.48    78.40    77.07    72.78    68.89    65.33    
 61.53    57.58    54.18    49.81    46.86    44.29    26.20    18.22    16.38    17.95    
 18.29    19.06    20.73    22.60    24.60    26.60    28.54    30.34    32.47    34.79    
 37.41    40.40    43.96    47.98    52.58    58.16    63.95    70.66    77.71    85.14    
 96.86    
130560.75 133092.86 135297.96 137661.45 140359.52 143212.60 145130.76 145061.67 143350.10 140694.46 
 137681.88 133541.02 128426.54 122342.90 114983.61 105905.02 96425.15 87471.97 78878.23 71483.41 
 64884.60 59358.76 54820.53 51073.63 47931.62 45028.59 42239.63 39391.30 36871.60 34680.07 
 32473.36 30521.22 28838.26 27116.77 25496.69 23876.61 22257.31 20707.54 19325.46 18040.08 
 16916.74 15856.61 14932.93 14031.34 13129.61 12326.04 11534.76 10800.00 10091.98 9404.76  
 8745.47  8140.23  7621.22  7134.85  6691.25  6275.54  5911.85  5564.85  5238.82  4954.57  
 4673.34  4409.02  4149.78  3879.65  3636.44  3412.79  3200.76  2984.90  2786.58  2588.26  
 2390.02  2198.73  2019.10  1849.40  1699.84  1558.86  1425.16  1300.64  1184.72  1076.13  
 977.42   883.97   800.96   727.65   666.08   610.98   562.76   518.78   475.64   446.42   
 424.05   402.96   380.77   360.41   341.34   325.89   312.19   301.11   291.89   284.68   
 278.49   273.51   268.88   265.04   261.59   258.76   256.62   254.69   252.59   250.81   
 249.10   247.40   245.56   243.58   240.55   237.52   234.48   230.35   226.04   221.50   
 216.86   211.94   207.09   202.16   197.59   193.09   188.85   185.24   181.33   177.52   
 173.63   170.04   165.79   161.75   157.80   153.74   149.60   145.14   141.04   136.40   
 130.82   124.64   118.70   112.05   107.22   102.20   98.79    94.59    89.96    85.16    
 84.18    85.07    80.91    75.71    71.46    68.95    65.90    62.73    58.63    56.26    
 32.78    20.94    21.50    22.79    24.17    26.41    28.89    31.35    33.65    35.68    
 37.85    40.31    43.16    46.52    50.61    55.36    60.77    67.21    74.58    82.30    
 96.86    
130560.75 133164.10 135791.93 138927.21 142708.59 146227.52 148041.59 147959.81 146744.11 144825.35 
 141855.15 138166.87 133216.92 125871.50 116854.24 107613.89 98294.28 89458.89 81087.17 73412.30 
 66820.42 61695.19 57612.45 54097.08 50752.80 47691.22 45055.95 42624.84 40334.92 38283.73 
 36357.49 34262.25 32363.36 30537.50 28704.36 27001.87 25355.93 23964.08 22534.48 21128.38 
 19750.20 18581.97 17463.23 16352.85 15230.66 14191.53 13164.99 12245.52 11405.92 10566.94 
 9727.96  9016.53  8388.17  7832.00  7354.73  6950.82  6616.60  6348.42  6101.27  5875.58  
 5557.24  5221.02  4953.92  4662.24  4386.36  4092.98  3780.17  3513.76  3187.12  2858.77  
 2586.64  2364.79  2183.19  2011.43  1847.78  1693.43  1549.19  1412.28  1286.66  1181.45  
 1076.40  971.35   882.61   807.99   742.51   684.64   632.06   579.53   532.45   504.68   
 479.73   455.70   430.17   406.83   383.29   364.52   347.76   334.43   324.25   315.43   
 308.83   303.63   300.00   297.20   294.76   292.83   290.92   289.95   288.43   286.43   
 284.25   282.55   281.11   279.67   278.10   275.67   272.66   269.28   265.14   259.75   
 254.34   249.07   243.27   237.13   231.33   225.45   219.52   213.76   208.11   202.79   
 197.69   192.85   187.92   183.13   178.33   173.66   162.30   155.29   151.34   148.11   
 144.51   140.20   135.97   131.70   126.17   120.64   116.01   111.37   106.96   102.43   
 96.23    90.32    86.62    87.13    85.46    79.53    74.61    73.89    72.73    70.71    
 64.37    61.84    27.27    24.76    26.66    28.93    31.63    34.53    37.37    39.97    
 41.77    44.03    46.44    49.28    52.81    57.37    62.79    69.48    76.84    84.72    
 96.86    
130560.75 133275.20 135878.98 139175.70 143223.53 146930.50 148937.02 149234.03 148356.47 146302.59 
 143291.66 139602.97 134351.61 126633.32 117973.41 108926.24 99565.47 90421.90 81912.36 74496.82 
 68221.60 63132.95 59072.68 55330.54 52092.08 49319.34 46809.70 44488.48 42707.67 40850.31 
 38875.18 36833.30 34981.43 33131.42 31451.89 29806.94 28416.92 26845.20 25287.44 23729.69 
 22174.32 20806.81 19405.02 18152.26 16839.38 15605.77 14504.70 13421.05 12389.24 11436.92 
 10564.14 9807.31  9130.07  8477.32  7895.20  7521.81  7413.65  7168.65  6951.41  6740.58  
 6359.34  6037.62  5701.51  5400.83  5145.70  4890.38  4378.30  3981.58  3533.31  3139.54  
 2882.08  2624.62  2367.98  2179.07  2002.67  1827.33  1662.75  1515.11  1383.37  1256.75  
 1144.20  1038.27  945.81   864.60   793.40   728.92   671.07   614.61   565.03   532.77   
 505.11   479.17   452.33   425.97   400.32   379.74   361.04   345.20   332.76   321.88   
 314.04   308.08   303.77   300.37   297.54   295.10   293.18   291.34   289.50   286.66   
 283.39   279.77   276.81   274.14   271.61   268.86   265.88   262.52   258.94   255.04   
 249.94   244.82   238.74   232.66   227.19   222.01   216.53   211.28   206.26   201.34   
 196.59   192.06   187.55   182.87   178.14   173.62   169.03   160.38   151.54   147.35   
 143.38   139.94   136.24   132.04   127.41   122.67   118.20   114.13   110.18   106.01   
 101.66   95.45    91.23    88.30    89.13    87.57    85.40    80.89    77.03    78.05    
 72.18    66.06    58.79    28.30    30.40    32.45    35.18    38.42    41.62    44.70    
 47.47    50.03    52.59    55.12    57.99    61.75    66.55    72.52    79.87    88.23    
 96.86    
130560.75 132958.25 135483.36 138594.64 142347.18 145518.41 147372.20 147634.41 146934.02 144854.68 
 141522.69 137674.07 132382.76 124723.81 115737.16 106257.77 96978.00 88159.77 80032.77 72468.95 
 66071.19 60935.97 56957.48 53443.33 50138.51 47305.80 44777.33 42538.08 40618.37 38891.25 
 37169.92 35381.51 33560.89 31866.38 30204.58 28412.64 26765.88 25365.43 23832.64 22306.51 
 20886.99 19551.40 18240.29 17067.60 15840.86 14724.26 13683.69 12691.17 11691.13 10876.12 
 10062.51 9319.39  8688.60  8097.69  7566.79  7154.54  6888.31  6658.59  6377.87  6035.82  
 5703.31  5368.98  5084.92  4776.56  4518.78  4251.87  3888.79  3558.48  3204.04  2909.49  
 2661.92  2455.20  2259.35  2072.24  1902.82  1743.18  1593.63  1453.79  1328.44  1208.43  
 1104.69  1001.09  911.83   834.89   766.87   707.51   650.95   597.86   552.73   522.38   
 496.12   470.37   442.56   418.31   393.83   374.36   355.65   340.57   328.41   317.66   
 308.94   301.62   295.48   290.38   285.38   280.60   275.96   271.91   267.09   262.00   
 256.87   252.60   248.55   244.59   240.85   236.98   233.07   229.04   224.73   219.78   
 215.08   210.86   206.60   202.34   198.29   194.29   190.20   186.12   182.00   178.29   
 174.56   170.51   166.34   162.25   158.34   154.64   146.50   140.57   137.07   133.80   
 130.81   126.93   123.04   119.27   115.86   112.86   109.57   106.45   102.88   99.06    
 94.77    91.96    88.71    88.66    86.39    82.29    79.87    77.83    76.80    60.51    
 68.02    66.08    32.70    32.77    34.78    37.49    40.92    44.50    47.99    51.17    
 54.08    57.07    59.88    62.55    65.40    68.84    73.12    78.56    85.01    92.26    
 96.86    
130560.75 132653.14 134591.82 136883.73 139704.34 142547.38 144320.74 144988.67 143923.62 141788.02 
 138359.48 133624.40 128132.70 121301.66 112907.91 103750.50 94695.15 85929.61 77662.42 70172.12 
 63500.13 58122.57 53823.80 50373.15 47260.83 44414.17 41693.32 39274.98 37099.19 35097.52 
 33158.77 31468.62 29891.53 28548.49 26953.22 25384.72 23816.22 22249.32 20817.46 19424.59 
 18213.83 17094.98 15999.81 15011.72 14044.73 13179.05 12322.08 11494.00 10708.93 9944.30  
 9250.93  8602.97  8040.23  7490.26  6989.50  6552.47  6162.50  5796.66  5442.35  5151.69  
 4868.51  4575.87  4293.93  4005.56  3745.28  3507.75  3293.73  3069.66  2842.65  2637.72  
 2433.00  2246.46  2071.91  1900.46  1749.90  1605.36  1465.58  1335.46  1215.09  1107.19  
 1005.55  909.81   825.30   751.35   689.46   633.11   582.73   535.24   492.94   464.39   
 440.85   418.72   395.10   373.17   352.26   334.39   318.05   304.48   292.13   282.09   
 273.35   265.56   258.51   251.34   245.11   238.49   231.89   226.28   220.83   216.00   
 211.51   207.14   203.08   199.28   195.43   191.87   188.15   184.05   180.54   176.70   
 172.85   168.98   165.28   161.66   158.10   154.54   151.40   148.85   145.56   142.24   
 139.16   136.23   133.02   129.96   127.49   124.77   121.89   119.03   116.63   113.92   
 110.60   106.19   102.07   97.31    93.49    90.71    88.77    86.64    85.72    84.47    
 82.61    80.78    76.70    73.99    71.58    69.88    68.40    66.20    58.25    54.58    
 32.84    32.22    34.21    36.54    39.64    43.32    47.06    50.88    54.68    58.37    
 61.77    64.94    67.88    70.87    74.19    77.98    82.31    87.32    93.09    99.26    
 96.86    
130560.75 132084.20 133389.86 134713.53 136246.47 137922.46 139088.34 138851.32 137348.40 134541.57 
 130737.84 126003.06 119892.28 112563.37 104972.23 96897.75 88487.37 80154.01 72325.41 64899.47 
 58454.22 53436.44 49251.11 45766.73 42761.38 40000.50 37501.90 35263.96 33151.75 31095.90 
 29237.49 27428.21 25879.42 24372.37 22979.99 21714.75 20553.09 19439.60 18337.36 17224.34 
 16126.96 15076.98 14145.63 13144.45 12209.63 11469.45 10730.94 9992.42  9310.88  8690.58  
 8129.49  7615.58  7132.88  6671.63  6235.34  5831.64  5466.98  5123.44  4814.45  4514.13  
 4233.49  3964.12  3718.05  3496.16  3283.29  3075.29  2884.51  2690.29  2497.23  2321.78  
 2159.26  2000.85  1849.27  1700.13  1561.00  1435.53  1313.39  1201.26  1096.70  992.20   
 902.27   816.97   738.25   669.12   608.16   558.16   513.12   474.65   436.25   408.39   
 387.42   366.08   345.03   324.33   306.78   290.20   275.94   263.43   252.52   242.45   
 232.81   224.47   216.57   209.06   202.03   195.56   189.71   184.33   179.12   174.51   
 170.39   166.09   161.80   157.59   154.28   150.86   147.82   144.49   141.58   138.50   
 135.93   133.24   130.42   127.23   124.02   121.63   119.12   116.72   114.41   112.30   
 109.91   107.29   104.76   102.42   100.17   97.95    95.63    93.01    90.46    87.95    
 84.84    81.42    78.51    76.02    73.24    71.12    68.73    64.43    61.54    58.20    
 55.59    53.40    51.79    49.08    48.63    35.90    27.16    28.29    29.74    31.64    
 33.66    36.70    40.05    43.51    47.05    50.62    54.25    57.85    61.73    65.65    
 69.05    72.09    75.13    78.50    82.27    86.52    91.18    96.25    101.53   107.19   
 96.86    
130560.75 131529.71 132079.75 132424.27 132661.73 132813.22 132673.12 131810.48 129991.11 126985.59 
 122747.23 117594.48 111519.78 104553.66 96962.10 89307.65 81649.90 74045.69 66653.69 60206.91 
 54315.42 49412.41 45368.86 41897.40 38964.21 36363.66 33984.59 31734.94 29792.02 27891.16 
 26212.50 24711.06 23210.10 21756.82 20557.39 19393.54 18344.37 17258.75 16288.05 15242.93 
 14422.79 13551.19 12747.94 11994.45 11272.02 10582.88 9912.41  9272.28  8638.89  8069.64  
 7470.55  6938.52  6453.20  5980.93  5531.72  5122.57  4769.32  4459.83  4181.01  3935.51  
 3711.98  3494.99  3292.00  3094.74  2909.76  2749.06  2593.66  2438.27  2283.95  2138.52  
 1994.30  1854.29  1715.26  1582.31  1457.00  1338.39  1225.02  1121.42  1027.96  936.38   
 847.82   764.80   693.31   628.52   571.71   519.70   475.16   440.65   411.46   382.40   
 361.54   341.85   321.82   302.84   285.38   269.70   256.26   243.22   230.17   217.15   
 206.55   196.54   187.75   179.81   172.71   165.74   158.82   152.72   147.59   142.68   
 138.19   134.15   129.83   125.98   122.44   119.15   116.21   112.95   109.81   106.61   
 103.83   100.81   97.77    95.20    92.31    89.58    87.05    84.61    81.89    79.19    
 76.29    73.09    70.50    67.86    65.83    62.99    60.37    57.77    55.43    52.86    
 50.10    47.03    44.20    41.00    38.51    35.87    31.85    17.87    14.52    14.31    
 15.62    17.50    19.55    21.76    24.12    26.67    29.35    32.21    35.20    38.31    
 41.50    44.71    48.01    51.38    54.84    58.46    62.14    65.81    69.30    72.59    
 75.56    79.28    83.38    87.43    91.72    96.30    101.12   106.05   111.20   116.32   
 96.86    
130560.75 130806.30 130666.45 130208.35 129503.47 128480.28 126602.74 123784.78 120407.17 116556.19 
 112051.58 106793.30 100587.51 93857.92 86718.39 78964.92 71707.40 64720.82 58181.27 52224.20 
 46894.21 42404.19 38641.95 35480.48 32847.79 30601.49 28720.71 26836.03 25091.63 23529.51 
 22079.27 20795.31 19595.51 18435.81 17363.07 16401.32 15401.10 14538.46 13679.23 12892.36 
 12145.55 11430.80 10716.35 10001.91 9346.52  8687.66  8119.38  7579.40  7042.45  6521.49  
 6039.93  5610.75  5202.42  4848.12  4505.09  4196.87  3919.68  3677.89  3449.96  3238.52  
 3043.59  2860.46  2688.09  2526.98  2363.19  2210.54  2066.37  1930.65  1794.61  1666.15  
 1545.74  1434.18  1324.98  1222.28  1127.80  1033.40  948.43   869.42   793.86   723.39   
 658.82   600.79   545.81   492.77   446.98   406.54   371.99   342.27   315.20   293.27   
 273.79   257.90   241.44   225.96   211.01   197.69   186.61   175.48   164.43   153.98   
 144.27   136.45   127.87   120.07   112.27   106.62   100.92   95.18    90.45    86.34    
 82.04    78.44    74.38    70.94    67.47    63.72    60.30    57.26    54.31    51.26    
 47.84    44.90    41.81    38.80    35.94    32.93    30.07    26.82    23.50    19.46    
 14.84    10.89    8.87     7.26     6.39     6.18     6.65     7.22     7.88     8.62     
 9.42     10.30    11.26    12.33    13.50    14.76    16.14    17.63    19.27    21.05    
 22.94    24.92    27.07    29.43    31.90    34.51    37.22    40.11    43.21    46.36    
 49.54    52.90    56.30    59.77    63.34    66.98    70.70    74.41    78.13    81.92    
 85.76    89.84    94.04    98.39    102.94   107.69   112.62   117.53   122.41   127.33   
 96.86    
130560.75 130310.39 129878.90 129213.32 128297.33 126333.07 123206.28 119581.80 116002.39 111213.29 
 105886.99 99964.87 93434.33 86566.66 78947.85 71049.50 63279.68 56326.45 50039.47 44157.45 
 38975.79 34604.23 31008.69 28346.02 26122.47 23935.09 22094.35 20352.50 18991.68 17568.95 
 16184.67 15001.26 13855.63 12871.59 11979.84 11164.04 10349.06 9596.99  8917.26  8290.95  
 7657.36  7051.14  6518.55  5956.16  5453.19  5048.56  4648.24  4240.77  3870.32  3476.32  
 3154.78  2857.39  2596.53  2342.49  2133.55  1946.25  1779.14  1636.17  1493.47  1360.74  
 1237.29  1130.20  1023.28  929.12   835.11   748.95   667.31   590.48   519.33   457.34   
 400.73   347.40   301.19   258.61   221.86   189.26   160.40   134.67   114.71   94.82    
 79.40    65.34    54.25    45.04    36.92    27.51    3.55     3.25     2.45     2.21     
 2.18     2.18     2.22     2.22     2.20     2.27     2.36     2.45     2.55     2.66     
 2.78     2.90     3.03     3.17     3.32     3.47     3.64     3.82     4.01     4.22     
 4.44     4.69     4.95     5.21     5.49     5.81     6.17     6.53     6.94     7.38     
 7.84     8.32     8.82     9.37     9.97     10.60    11.30    12.04    12.83    13.67    
 14.57    15.53    16.55    17.65    18.87    20.19    21.62    23.17    24.84    26.78    
 28.91    31.30    34.00    36.92    40.12    43.65    47.55    51.68    56.06    60.66    
 65.65    70.74    75.90    81.06    86.28    91.57    96.82    101.97   107.07   111.95   
 116.60   121.03   125.13   128.91   132.23   135.12   137.54   139.38   140.59   141.22   
 141.16   140.43   139.25   137.56   135.39   132.69   129.38   125.48   120.98   116.09   
 96.86    
130560.75 129666.78 129129.37 128681.77 128104.17 126704.30 123569.71 119521.54 116084.20 110749.74 
 104867.15 99191.67 91748.70 81507.25 70850.57 60180.91 51117.74 44017.25 38128.81 32639.53 
 28387.06 24134.60 19898.14 17619.10 15523.81 12854.72 10504.21 9129.88  7949.95  7082.36  
 6144.17  4894.45  4009.76  3636.46  3130.83  2625.21  2121.23  1803.39  1534.65  1103.25  
 794.47   651.51   529.64   420.78   323.94   261.54   199.33   159.29   130.26   105.70   
 89.49    77.13    66.51    56.11    48.93    43.37    38.69    34.99    31.61    28.76    
 26.18    24.42    22.51    20.59    18.59    15.96    15.16    14.97    14.72    14.51    
 14.32    14.30    14.31    14.25    14.15    14.09    14.00    13.86    13.65    13.07    
 12.09    10.52    8.17     5.60     2.53     1.79     1.83     1.90     1.97     2.05     
 2.14     2.24     2.34     2.46     2.58     2.72     2.86     3.00     3.17     3.34     
 3.51     3.69     3.89     4.10     4.33     4.58     4.83     5.10     5.39     5.70     
 6.03     6.39     6.78     7.20     7.65     8.15     8.66     9.20     9.75     10.33    
 10.97    11.64    12.37    13.10    13.87    14.70    15.59    16.56    17.56    18.60    
 19.72    20.89    22.16    23.51    24.94    26.52    28.25    30.13    32.10    34.32    
 36.83    39.56    42.51    45.76    49.34    53.25    57.41    61.89    66.55    71.51    
 76.60    81.82    87.00    92.34    97.59    102.78   107.85   112.66   117.45   121.90   
 126.03   129.88   133.34   136.54   139.27   141.44   143.05   144.13   144.50   144.26   
 143.38   141.83   139.74   137.08   133.96   130.24   125.83   120.87   115.39   109.60   
 96.86    
130560.75 129468.38 129219.37 129011.16 128680.56 127804.90 124718.27 114179.38 100510.67 89132.16 
 81033.93 71218.51 62438.75 54750.50 43588.85 35393.31 30582.53 23657.10 17288.73 14288.98 
 11613.73 8941.87  6270.01  2455.06  1188.68  924.82   671.41   493.56   364.78   269.67   
 214.17   182.98   161.40   142.91   127.05   111.22   95.38    84.46    74.18    65.47    
 57.88    50.20    44.32    39.29    35.06    31.38    28.02    24.89    21.78    17.45    
 15.17    13.97    13.15    12.36    11.60    10.86    9.99     9.40     8.88     8.47     
 8.03     7.66     7.33     6.98     6.76     6.56     6.34     6.13     5.95     5.78     
 5.65     5.49     5.29     5.10     4.93     4.68     4.36     3.99     3.66     3.32     
 2.97     2.56     2.25     2.16     2.15     2.20     2.28     2.36     2.46     2.56     
 2.67     2.80     2.93     3.07     3.24     3.42     3.59     3.78     3.99     4.20     
 4.43     4.67     4.91     5.19     5.48     5.76     6.08     6.44     6.80     7.20     
 7.62     8.07     8.53     9.03     9.53     10.10    10.70    11.32    12.01    12.72    
 13.47    14.27    15.12    16.02    16.95    17.91    18.95    20.08    21.27    22.52    
 23.84    25.23    26.75    28.34    30.07    31.93    33.94    36.13    38.55    41.20    
 44.00    47.11    50.54    54.33    58.38    62.69    67.30    72.11    77.16    82.42    
 87.78    93.15    98.54    103.96   109.29   114.39   119.27   123.88   128.20   132.21   
 135.91   139.08   141.83   144.10   145.85   147.14   147.96   148.00   147.54   146.50   
 144.90   142.51   139.88   136.55   132.83   128.29   123.21   117.58   111.35   104.67   
 96.86    
130560.75 129100.80 128894.18 128821.03 128558.26 122308.88 107827.99 97600.34 85700.38 75954.14 
 62221.25 51847.02 46300.30 34232.18 26833.61 19461.41 14921.64 8048.53  1241.05  1006.00  
 743.05   513.11   384.91   351.01   290.42   229.82   169.39   126.44   98.81    84.82    
 75.53    67.94    61.88    57.00    52.24    48.22    43.64    40.01    35.86    31.35    
 26.74    24.22    22.91    21.50    20.44    19.28    18.13    16.65    15.43    14.00    
 12.77    11.70    10.57    9.47     8.46     7.72     7.21     6.81     6.41     5.95     
 5.58     5.25     4.94     4.67     4.41     4.17     3.87     3.68     3.52     3.40     
 3.27     3.13     2.99     2.86     2.75     2.65     2.56     2.47     2.40     2.32     
 2.29     2.30     2.33     2.37     2.45     2.53     2.61     2.70     2.79     2.89     
 2.99     3.09     3.20     3.34     3.48     3.63     3.79     3.97     4.17     4.38     
 4.60     4.83     5.08     5.34     5.61     5.91     6.24     6.58     6.94     7.34     
 7.79     8.28     8.78     9.30     9.85     10.46    11.12    11.83    12.57    13.33    
 14.14    15.03    16.02    17.03    18.07    19.17    20.35    21.64    22.98    24.41    
 25.93    27.56    29.33    31.13    33.05    35.16    37.46    39.90    42.46    45.31    
 48.46    51.84    55.48    59.43    63.63    68.20    72.95    77.99    83.16    88.66    
 94.15    99.80    105.38   111.09   116.66   121.99   127.12   131.73   136.13   140.00   
 143.38   146.23   148.48   150.12   151.16   151.63   151.23   150.29   148.79   147.22   
 144.58   141.39   137.89   133.89   129.45   124.60   119.23   113.31   106.80   100.06   
 96.86    
130560.75 129162.04 128980.69 128860.02 124041.36 106226.46 96274.33 84306.54 73127.78 59741.99 
 51940.85 37147.04 28975.96 20796.54 10946.32 1078.28  847.12   713.99   580.07   404.98   
 269.53   242.77   194.23   187.60   157.25   138.63   121.38   104.14   86.91    75.57    
 64.85    56.35    44.92    44.83    38.19    32.45    35.08    28.24    27.23    25.70    
 26.87    23.41    20.90    19.22    19.42    15.58    15.57    13.72    12.51    11.40    
 10.56    9.63     8.06     6.61     5.92     5.61     5.43     5.15     4.84     4.52     
 4.22     3.97     3.72     3.50     3.28     3.10     2.94     2.80     2.67     2.55     
 2.46     2.39     2.32     2.28     2.23     2.19     2.17     2.14     2.16     2.17     
 2.18     2.19     2.20     2.28     2.36     2.44     2.53     2.62     2.74     2.85     
 2.97     3.09     3.23     3.36     3.51     3.67     3.85     4.05     4.26     4.49     
 4.74     5.01     5.30     5.58     5.91     6.27     6.65     7.03     7.44     7.86     
 8.35     8.84     9.37     9.93     10.55    11.22    11.92    12.65    13.45    14.31    
 15.20    16.14    17.14    18.24    19.42    20.65    21.98    23.42    24.91    26.49    
 28.16    29.92    31.78    33.78    35.88    38.17    40.59    43.17    45.93    48.95    
 52.22    55.77    59.66    63.84    68.33    73.17    78.34    83.65    89.11    94.81    
 100.72   106.54   112.26   117.84   123.13   128.42   133.60   138.48   142.93   146.88   
 150.46   153.35   155.42   156.75   157.34   157.10   155.99   154.20   151.70   148.56   
 144.86   140.83   136.51   131.87   127.15   121.98   116.33   110.39   104.05   97.28    
 96.86    
130560.75 128535.35 128323.99 128075.02 119639.28 100920.99 90696.84 80435.99 63452.43 56991.30 
 39899.46 30071.17 20242.89 10414.60 673.52   629.97   408.17   256.31   328.23   268.99   
 209.76   150.79   126.53   115.01   72.36    42.40    27.93    24.08    20.84    18.67    
 16.92    14.81    11.49    10.20    9.49     8.83     8.37     7.80     7.38     6.99     
 6.68     6.45     6.22     5.97     5.75     5.41     5.16     4.98     4.67     4.44     
 4.27     4.06     3.86     3.70     3.54     3.40     3.21     3.07     2.97     2.88     
 2.79     2.69     2.63     2.56     2.51     2.47     2.43     2.39     2.35     2.31     
 2.29     2.25     2.23     2.22     2.18     2.17     2.17     2.18     2.19     2.20     
 2.22     2.26     2.31     2.36     2.41     2.48     2.55     2.63     2.72     2.82     
 2.93     3.03     3.13     3.25     3.39     3.54     3.72     3.92     4.15     4.39     
 4.65     4.93     5.24     5.58     5.94     6.30     6.69     7.11     7.55     8.02     
 8.52     9.03     9.58     10.17    10.79    11.47    12.19    12.95    13.73    14.58    
 15.53    16.55    17.62    18.76    19.94    21.22    22.60    24.10    25.67    27.28    
 29.03    30.84    32.80    34.87    37.02    39.25    41.68    44.24    46.96    49.87    
 53.15    56.63    60.44    64.61    69.10    73.96    79.07    84.52    90.20    96.15    
 102.26   108.39   114.40   120.50   126.31   131.86   137.13   141.92   146.56   150.79   
 154.73   158.17   160.83   162.70   163.67   163.76   162.89   161.03   158.25   154.81   
 150.66   146.18   141.50   136.42   130.94   125.48   119.67   113.60   107.13   100.20   
 96.86    
130560.75 128493.68 128170.85 127894.58 116672.77 100534.96 88183.23 76429.24 61042.61 52271.84 
 38389.41 26771.66 15639.33 12456.57 9360.57  6264.57  3168.57  72.58    25.03    20.37    
 17.74    15.94    14.63    12.91    11.31    10.13    9.30     8.82     8.76     8.80     
 8.56     6.99     6.01     5.61     5.61     5.73     5.93     6.09     5.86     5.72     
 5.53     5.44     5.29     5.22     4.96     4.82     4.89     4.91     4.76     4.48     
 4.25     4.21     4.09     4.01     3.96     3.94     3.80     3.69     3.59     3.47     
 3.37     3.33     3.30     3.23     3.16     3.07     2.99     2.92     2.85     2.78     
 2.70     2.65     2.60     2.57     2.55     2.54     2.53     2.53     2.53     2.55     
 2.60     2.65     2.70     2.80     2.98     3.14     3.26     3.34     3.44     3.53     
 3.63     3.76     3.86     3.92     3.99     4.08     4.21     4.36     4.55     4.78     
 5.05     5.34     5.65     5.99     6.38     6.77     7.19     7.60     8.04     8.52     
 9.01     9.51     10.05    10.64    11.29    11.97    12.71    13.51    14.39    15.32    
 16.30    17.29    18.41    19.62    20.89    22.22    23.67    25.19    26.83    28.55    
 30.32    32.19    34.11    36.15    38.31    40.61    42.99    45.53    48.21    51.12    
 54.33    57.78    61.60    65.74    70.26    75.19    80.47    85.94    91.64    97.70    
 104.05   110.39   116.63   122.64   128.41   133.98   139.36   144.29   148.77   152.92   
 156.85   160.35   163.10   165.09   166.19   166.27   165.47   163.55   160.63   157.14   
 152.91   148.31   143.62   138.66   133.77   128.58   123.30   117.68   111.66   104.80   
 96.86    
