IESNA:LM-63-2002
[TEST] 1
[TESTLAB] AOK
[TESTDATE] 2022-05-31
[ISSUEDATE] 2022-05-31 14:42:52
[NEARFIELD] 
[LAMPPOSITION] 0,0
[OTHER] EVERFINE GO-2000A_V1 SYSTEM
[MANUFAC] AOK
[LUMCAT] A
[LUMINAIRE] AOK-1200WiSF-NV-S5-00-5070-30D-P
[LAMPCAT] B
[LAMP] 5050
[BALLAST] E
[BALLASTCAT] F
[OTHER] 
[OTHER] Gamma(deg)    Fz(lm)      Ft(lm)     %Lum    %Lamp
[OTHER]   0- 10     31876.29    31876.29    19.21    19.21
[OTHER]  10- 20     51918.54    83794.83    50.49    50.49
[OTHER]  20- 30     32027.82   115822.65    69.79    69.79
[OTHER]  30- 40     21007.97   136830.61    82.45    82.45
[OTHER]  40- 50     13125.80   149956.42    90.35    90.35
[OTHER]  50- 60      7389.22   157345.63    94.81    94.81
[OTHER]  60- 70      4142.33   161487.96    97.30    97.30
[OTHER]  70- 80      2096.15   163584.11    98.57    98.57
[OTHER]  80- 90       906.53   164490.64    99.11    99.11
[OTHER]  90-100       446.66   164937.30    99.38    99.38
[OTHER] 100-110       282.88   165220.19    99.55    99.55
[OTHER] 110-120       206.17   165426.36    99.68    99.68
[OTHER] 120-130       151.45   165577.81    99.77    99.77
[OTHER] 130-140       110.12   165687.93    99.83    99.83
[OTHER] 140-150        88.23   165776.16    99.89    99.89
[OTHER] 150-160        84.53   165860.69    99.94    99.94
[OTHER] 160-170        74.49   165935.18    99.98    99.98
[OTHER] 170-180        28.46   165963.63   100.00   100.00
[OTHER] 
TILT=NONE
1 1.6596e+005 1 181 25 1 2 0.150 0.200 0.000
1.000 1 1184.09
0.0    1.0    2.0    3.0    4.0    5.0    6.0    7.0    8.0    9.0    
 10.0   11.0   12.0   13.0   14.0   15.0   16.0   17.0   18.0   19.0   
 20.0   21.0   22.0   23.0   24.0   25.0   26.0   27.0   28.0   29.0   
 30.0   31.0   32.0   33.0   34.0   35.0   36.0   37.0   38.0   39.0   
 40.0   41.0   42.0   43.0   44.0   45.0   46.0   47.0   48.0   49.0   
 50.0   51.0   52.0   53.0   54.0   55.0   56.0   57.0   58.0   59.0   
 60.0   61.0   62.0   63.0   64.0   65.0   66.0   67.0   68.0   69.0   
 70.0   71.0   72.0   73.0   74.0   75.0   76.0   77.0   78.0   79.0   
 80.0   81.0   82.0   83.0   84.0   85.0   86.0   87.0   88.0   89.0   
 90.0   91.0   92.0   93.0   94.0   95.0   96.0   97.0   98.0   99.0   
 100.0  101.0  102.0  103.0  104.0  105.0  106.0  107.0  108.0  109.0  
 110.0  111.0  112.0  113.0  114.0  115.0  116.0  117.0  118.0  119.0  
 120.0  121.0  122.0  123.0  124.0  125.0  126.0  127.0  128.0  129.0  
 130.0  131.0  132.0  133.0  134.0  135.0  136.0  137.0  138.0  139.0  
 140.0  141.0  142.0  143.0  144.0  145.0  146.0  147.0  148.0  149.0  
 150.0  151.0  152.0  153.0  154.0  155.0  156.0  157.0  158.0  159.0  
 160.0  161.0  162.0  163.0  164.0  165.0  166.0  167.0  168.0  169.0  
 170.0  171.0  172.0  173.0  174.0  175.0  176.0  177.0  178.0  179.0  
 180.0  
0.0    15.0   30.0   45.0   60.0   75.0   90.0   105.0  120.0  135.0  
 150.0  165.0  180.0  195.0  210.0  225.0  240.0  255.0  270.0  285.0  
 300.0  315.0  330.0  345.0  360.0  
370210.56 367688.37 368096.77 367626.16 343775.80 319748.62 295143.18 260489.82 237336.39 206572.74 
 176389.23 146055.29 129453.30 119536.85 108679.44 97811.21 87042.25 66677.15 50649.14 38066.55 
 27034.98 16709.28 13321.25 10012.79 6704.33  3395.88  87.42    38.71    33.00    29.27    
 25.81    24.03    22.17    19.88    17.55    15.87    14.22    12.84    11.94    11.24    
 11.03    10.77    10.83    10.35    9.91     9.64     10.02    10.44    10.91    11.52    
 12.09    12.45    12.79    13.30    13.81    13.93    13.85    13.54    13.24    12.86    
 12.39    11.88    11.33    10.82    10.33    9.95     9.67     9.40     9.21     9.03     
 8.87     8.71     8.62     8.45     8.35     8.20     8.10     7.98     7.85     7.78     
 7.75     7.73     7.74     7.78     7.94     8.10     8.26     8.45     8.67     8.92     
 9.14     9.40     9.67     9.97     10.31    10.66    11.02    11.40    11.82    12.28    
 12.75    13.25    13.76    14.35    14.99    15.67    16.37    17.13    17.96    18.88    
 19.85    20.93    22.09    23.37    24.75    26.24    27.86    29.61    31.49    33.48    
 35.62    37.93    40.41    43.12    46.00    48.96    52.31    55.89    59.69    63.71    
 68.01    72.69    77.65    82.89    88.52    94.41    100.83   107.88   115.49   123.71   
 132.47   141.79   151.93   163.05   174.80   187.05   199.80   213.01   227.04   242.41   
 257.78   272.59   287.17   301.45   315.76   329.35   342.32   354.81   366.56   377.56   
 387.65   396.79   405.28   412.72   418.67   422.62   424.74   424.72   422.69   418.31   
 412.00   404.94   397.00   387.79   377.72   366.51   354.22   338.89   322.92   304.70   
 284.52   
370210.56 367187.02 365714.84 364895.77 357260.07 327784.00 303788.98 277675.02 249398.76 221122.49 
 192862.28 166551.32 133298.90 119256.05 107919.17 96871.97 86345.49 76413.23 58101.49 45308.20 
 34703.88 25196.31 15718.96 9879.47  5363.03  883.73   564.88   394.93   290.90   187.53   
 151.68   109.50   111.02   91.26    51.15    36.48    29.86    26.11    23.89    22.14    
 20.76    19.63    18.42    17.09    15.98    15.09    14.39    13.82    13.46    13.22    
 13.09    12.84    12.34    11.60    10.86    10.16    9.62     9.18     8.72     8.33     
 7.95     7.61     7.30     7.09     6.84     6.68     6.50     6.28     6.11     5.96     
 5.83     5.68     5.65     5.55     5.49     5.48     5.46     5.46     5.46     5.46     
 5.46     5.51     5.66     5.79     5.91     6.15     6.40     6.54     6.74     7.06     
 7.33     7.59     7.84     8.10     8.37     8.72     9.12     9.56     9.99     10.48    
 10.99    11.55    12.15    12.78    13.47    14.19    14.94    15.76    16.68    17.66    
 18.68    19.79    21.00    22.30    23.75    25.28    26.89    28.56    30.36    32.33    
 34.47    36.84    39.38    42.00    44.77    47.78    51.08    54.58    58.27    62.23    
 66.41    70.88    75.63    80.74    86.13    91.93    98.26    105.20   112.46   121.23   
 130.01   139.34   149.55   160.33   171.97   184.53   197.47   211.07   225.07   239.80   
 254.79   269.74   284.25   299.06   313.53   327.60   340.98   353.52   365.72   377.21   
 387.58   397.47   406.74   414.78   421.00   425.41   427.41   427.91   425.37   421.56   
 416.11   409.57   402.85   395.29   385.91   375.26   363.13   349.30   333.38   315.84   
 284.52   
370210.56 367016.08 364252.31 362482.46 359456.63 337397.87 313309.64 284656.07 257842.40 231921.12 
 205259.24 179221.15 150184.90 124437.62 107753.02 91164.74 80513.11 70666.45 61650.11 53630.85 
 41359.50 33965.74 26689.06 18871.74 14498.61 10196.74 5895.22  1580.40  1153.34  776.03   
 398.71   287.14   217.31   166.24   140.97   119.26   97.58    75.91    64.93    54.97    
 48.59    43.64    38.87    36.20    33.46    31.53    29.51    27.34    25.55    24.27    
 23.69    23.23    22.42    21.03    19.59    18.58    17.69    16.68    15.52    14.55    
 13.51    12.58    11.74    11.18    10.61    10.06    9.61     9.16     8.71     8.20     
 7.73     7.33     7.00     6.72     6.43     6.18     5.96     5.74     5.56     5.43     
 5.33     5.32     5.35     5.46     5.61     5.78     5.98     6.19     6.42     6.66     
 6.94     7.24     7.56     7.91     8.29     8.69     9.13     9.58     10.07    10.57    
 11.12    11.71    12.33    13.01    13.71    14.46    15.26    16.13    17.05    18.04    
 19.08    20.25    21.51    22.84    24.28    25.81    27.48    29.24    31.14    33.17    
 35.32    37.64    40.11    42.80    45.63    48.58    51.77    55.26    58.94    62.89    
 66.98    71.30    75.89    80.80    86.23    92.16    98.50    105.32   112.71   120.59   
 129.11   138.25   148.44   159.41   170.92   183.17   196.12   209.70   223.66   239.16   
 254.68   269.39   284.09   298.74   313.74   328.31   342.14   355.36   368.32   380.49   
 392.05   402.14   411.24   419.19   425.24   429.57   432.00   432.54   431.04   428.91   
 424.92   420.21   414.43   406.57   397.17   385.73   373.10   358.56   342.61   325.49   
 284.52   
370210.56 367403.97 363377.59 360241.52 354827.32 346982.92 329078.18 302085.72 280020.03 253025.15 
 226030.26 199093.66 179147.56 150236.78 128538.58 106347.06 86872.85 70418.94 61234.23 53225.81 
 47412.93 42469.29 38253.28 34385.18 29051.79 23718.39 18400.73 14798.29 11331.84 8299.25  
 6302.87  4506.74  2710.61  926.55   628.34   439.43   324.70   260.51   196.61   162.49   
 135.58   115.36   98.63    83.90    73.81    63.99    56.88    51.17    45.77    41.73    
 38.62    36.13    34.14    31.92    29.95    28.74    28.34    28.15    27.65    26.18    
 24.15    22.27    20.36    18.76    17.17    15.76    14.55    13.60    12.65    11.75    
 10.98    10.20    9.48     8.90     8.36     7.82     7.27     6.77     6.30     5.88     
 5.52     5.30     5.28     5.35     5.48     5.65     5.85     6.07     6.30     6.55     
 6.84     7.15     7.47     7.82     8.21     8.62     9.07     9.56     10.07    10.60    
 11.15    11.74    12.38    13.07    13.81    14.56    15.39    16.25    17.25    18.24    
 19.27    20.38    21.60    22.90    24.31    25.83    27.46    29.19    30.95    32.94    
 35.01    37.31    39.77    42.27    44.90    47.77    50.81    54.10    57.57    61.19    
 65.11    69.25    73.81    78.59    83.69    89.18    95.32    101.84   108.72   116.30   
 125.51   134.72   144.53   155.31   166.64   178.93   191.79   205.13   219.20   233.67   
 248.57   263.68   278.42   294.01   309.30   324.50   339.31   353.20   366.57   379.02   
 390.64   401.13   410.53   418.61   424.74   429.51   432.81   435.19   435.35   434.12   
 431.49   426.95   420.88   413.68   404.60   393.73   381.21   367.04   351.18   335.14   
 284.52   
370210.56 367578.60 363951.32 357702.41 350080.52 341557.58 331976.09 320446.41 305456.38 278572.38 
 251191.43 229616.78 203799.00 179712.65 155408.40 131576.42 114995.71 98488.71 81981.70 70656.89 
 59383.61 51624.36 44644.90 37970.20 34278.21 31132.75 28253.74 25700.74 23061.30 20748.18 
 18593.07 16518.80 14267.81 11682.99 9565.29  7452.91  5706.34  4655.02  3545.06  2665.31  
 1904.51  1286.39  960.49   638.12   454.64   346.07   277.83   225.73   187.18   152.74   
 130.65   115.28   100.00   86.43    74.32    65.69    58.23    52.16    47.97    44.34    
 40.77    38.75    36.55    34.53    32.57    30.51    27.94    24.68    22.04    20.11    
 18.42    16.83    15.24    13.78    12.56    11.51    10.62    9.73     8.75     7.79     
 6.92     6.27     5.86     5.82     5.95     6.12     6.32     6.55     6.79     7.06     
 7.35     7.66     8.00     8.36     8.75     9.16     9.60     10.08    10.58    11.08    
 11.65    12.26    12.92    13.59    14.32    15.10    15.94    16.81    17.71    18.69    
 19.74    20.86    22.04    23.34    24.78    26.24    27.78    29.41    31.23    33.14    
 35.13    37.24    39.53    41.95    44.53    47.24    50.13    53.26    56.62    60.14    
 63.89    67.83    71.99    76.52    81.49    87.06    93.07    99.56    106.69   114.41   
 122.88   131.97   142.16   153.20   164.98   177.48   190.77   204.58   218.91   234.31   
 249.73   265.14   280.02   294.89   310.27   325.15   339.24   352.80   365.67   378.23   
 389.71   400.27   409.68   418.28   425.40   431.00   435.25   437.75   438.73   438.05   
 435.93   431.64   425.98   418.87   410.38   400.29   389.22   376.51   362.57   348.58   
 284.52   
370210.56 368244.75 365308.74 360123.70 351484.45 341804.70 330931.48 319404.55 305801.24 289926.99 
 272326.54 252040.55 231754.55 211456.12 189749.80 169764.89 150658.16 130740.94 112911.51 98688.11 
 87397.03 78570.02 70230.52 62913.28 57084.95 52216.37 47564.58 42825.54 38490.29 35017.89 
 32033.76 29300.82 26795.87 24290.93 21790.29 19804.19 17801.37 16131.87 14591.31 13114.05 
 11675.74 10489.17 9418.45  8422.57  7493.45  6577.84  5743.58  4940.25  4232.63  3551.37  
 2987.08  2422.80  1860.10  1456.42  1123.24  895.55   714.80   585.38   481.32   390.93   
 317.53   261.17   205.01   169.80   143.07   120.00   101.19   83.97    71.18    60.70    
 51.84    45.21    39.91    36.33    32.31    27.65    22.54    19.36    16.73    14.26    
 12.22    10.09    7.31     5.43     5.27     5.39     5.55     5.72     5.93     6.14     
 6.39     6.66     6.96     7.29     7.65     8.04     8.45     8.89     9.34     9.83     
 10.32    10.84    11.40    12.00    12.64    13.32    14.04    14.84    15.70    16.62    
 17.62    18.68    19.84    21.06    22.32    23.76    25.26    26.81    28.41    30.15    
 32.08    34.17    36.38    38.68    41.23    43.93    46.73    49.88    53.16    56.62    
 60.17    64.06    68.16    72.56    77.20    82.29    87.90    93.99    100.43   107.61   
 115.41   124.33   133.27   143.62   154.83   167.03   179.76   193.36   207.40   221.95   
 237.07   252.15   267.19   282.78   297.95   313.02   327.96   342.17   356.32   369.78   
 382.28   394.25   405.10   415.41   424.24   431.61   437.19   442.09   444.78   446.38   
 446.09   442.59   437.70   431.72   424.43   415.97   406.68   395.89   383.81   370.78   
 284.52   
370210.56 368501.16 366264.28 362420.92 355188.93 346191.01 336822.18 325940.40 312995.02 297565.40 
 280436.80 262069.71 241577.03 221074.48 199728.99 179500.37 160404.73 142488.35 126637.41 113025.03 
 101424.51 91652.53 83617.76 76847.31 71080.78 65808.38 60955.02 56462.01 52328.92 48521.06 
 45077.02 41896.35 38941.15 36189.19 33755.93 31456.94 29261.15 27190.16 25413.01 23635.86 
 21861.50 20307.95 18813.55 17415.32 16020.80 14715.56 13583.39 12453.88 11450.71 10497.59 
 9617.17  8845.33  8164.51  7535.42  6954.95  6438.12  5967.19  5519.08  5087.48  4677.88  
 4316.35  3961.50  3634.15  3318.98  3025.57  2767.93  2510.30  2252.98  2023.96  1813.51  
 1616.43  1434.80  1269.79  1115.81  970.19   834.72   708.48   596.91   497.58   414.98   
 342.07   286.22   230.38   174.61   124.99   77.02    31.47    9.15     5.57     3.88     
 3.67     3.77     3.71     3.55     2.24     2.23     2.37     2.57     2.59     2.57     
 2.66     2.74     2.86     3.05     3.02     3.11     3.32     3.35     3.42     3.59     
 3.74     3.79     3.99     4.21     4.53     4.83     5.00     5.20     5.41     5.64     
 5.91     6.21     6.53     6.90     7.35     7.85     8.41     8.99     9.61     10.31    
 11.09    11.93    12.86    13.89    14.97    16.14    17.47    18.91    20.43    22.10    
 23.95    25.90    28.19    30.70    33.38    36.40    39.60    43.03    46.71    50.60    
 54.69    58.88    63.43    68.21    73.16    78.42    84.10    90.06    96.38    103.01   
 109.78   116.81   124.72   132.63   140.41   148.61   157.25   166.51   176.25   187.77   
 198.24   209.43   220.76   233.18   246.62   260.72   275.32   289.84   304.23   318.66   
 284.52   
370210.56 369419.24 368032.97 365025.06 359322.15 351765.15 343505.15 333427.48 321875.53 307710.51 
 291552.02 273524.04 254731.24 234473.49 214006.71 193696.14 174819.10 157239.35 141522.42 127398.34 
 117195.57 107028.65 96861.73 89550.02 83274.77 77764.33 72724.95 68076.30 63673.50 59556.31 
 55795.95 52424.59 49395.29 46428.10 43764.65 41218.00 38806.25 36565.04 34405.91 32383.08 
 30479.60 28549.73 26788.80 25025.50 23419.65 21854.56 20337.07 18993.32 17654.90 16442.65 
 15305.43 14256.10 13309.91 12502.41 11688.34 11023.15 10359.29 9755.28  9218.07  8682.59  
 8165.89  7691.01  7235.47  6817.20  6412.85  6021.80  5640.84  5285.52  4940.80  4620.53  
 4320.02  4045.25  3776.20  3509.65  3255.88  3026.56  2811.04  2602.03  2407.84  2227.76  
 2054.98  1896.64  1744.41  1607.78  1478.47  1357.60  1244.00  1156.11  1068.47  980.82   
 906.33   832.68   763.80   701.98   643.44   589.07   539.74   492.21   447.37   410.32   
 374.38   342.79   314.28   288.56   264.96   241.72   219.63   198.76   178.09   159.17   
 141.82   127.62   113.49   99.37    85.29    71.82    60.01    50.80    42.82    35.15    
 17.70    6.58     5.14     5.16     5.44     5.85     6.29     6.76     7.24     7.95     
 9.01     9.99     10.98    12.15    13.37    15.39    17.06    17.79    17.88    18.59    
 19.88    21.36    23.68    26.36    27.90    29.80    30.95    33.46    37.39    41.02    
 44.44    48.02    51.30    53.50    57.68    62.20    67.04    72.17    77.50    83.06    
 88.91    95.14    101.54   108.46   115.67   123.45   131.57   141.07   150.23   160.02   
 170.46   180.97   193.11   205.28   218.82   234.57   250.33   266.37   282.24   298.06   
 284.52   
370210.56 370326.03 370079.28 369141.24 366324.06 361089.79 354510.41 347317.02 338238.52 326983.56 
 313540.01 298138.67 280275.69 260706.81 240068.24 219432.41 199039.21 179995.14 162585.99 147019.72 
 133086.82 121563.80 112201.89 104216.99 97217.75 91057.59 85324.70 80452.01 75811.55 71197.65 
 67126.14 63139.20 59637.29 56557.83 53578.11 50716.92 47897.75 45308.92 42901.20 40509.60 
 38152.50 36036.91 33917.19 31955.04 29993.74 28112.20 26322.95 24688.72 23055.54 21511.68 
 20056.37 18701.90 17412.78 16217.65 15093.23 14091.58 13182.47 12376.70 11604.53 10910.97 
 10287.98 9696.72  9124.63  8588.42  8085.15  7630.51  7183.58  6748.83  6331.82  5931.18  
 5531.87  5144.46  4785.34  4457.01  4136.51  3836.87  3550.60  3283.35  3039.89  2818.41  
 2596.93  2375.87  2191.51  2025.52  1880.23  1743.14  1616.60  1503.16  1405.57  1321.69  
 1245.53  1164.97  1090.22  1019.73  954.11   893.99   840.56   787.18   744.61   704.25   
 667.60   635.93   607.51   582.11   558.16   536.37   516.31   497.19   480.98   467.06   
 452.15   436.26   421.36   406.74   393.28   380.20   367.34   354.18   341.05   326.67   
 312.37   297.86   283.69   268.69   251.67   234.66   217.66   201.50   185.83   167.90   
 147.54   115.05   90.21    62.29    39.62    36.18    30.38    23.15    12.42    11.07    
 12.11    13.32    14.63    16.18    17.93    19.89    22.01    24.39    27.45    30.86    
 34.34    38.03    41.78    47.79    65.68    56.22    54.17    58.53    63.17    68.12    
 73.39    78.96    84.77    90.90    97.38    104.39   111.83   119.92   128.74   138.13   
 148.43   159.48   171.25   183.43   197.04   211.52   227.25   243.11   259.58   276.10   
 284.52   
370210.56 371122.29 371921.23 372521.26 372525.76 371261.77 367811.97 362562.45 355082.15 345683.28 
 333261.41 318755.91 301739.91 282684.62 261435.60 239337.88 218123.39 198280.06 180149.48 163260.66 
 148162.51 136007.07 126013.80 118294.27 111245.65 104202.37 98336.54 92996.91 87982.15 83116.70 
 78418.53 74223.66 70203.33 66283.32 62775.33 59342.01 55984.43 52773.83 49833.56 46828.10 
 44027.27 41279.80 38576.26 35932.40 33565.73 31327.99 29138.78 27048.84 25197.06 23533.11 
 21977.71 20505.73 19149.07 17919.92 16703.80 15618.21 14616.78 13746.54 12928.80 12147.09 
 11402.59 10658.38 9994.33  9367.91  8785.88  8212.68  7678.82  7162.14  6664.04  6181.33  
 5746.46  5348.07  4956.24  4585.00  4240.79  3922.06  3614.38  3319.62  3049.42  2800.27  
 2574.95  2364.26  2164.51  1974.99  1815.05  1679.01  1556.02  1438.36  1337.56  1258.56  
 1206.60  1127.47  1048.11  988.56   937.45   890.47   850.02   814.12   782.49   753.53   
 728.52   705.78   684.97   666.24   647.01   628.94   612.10   596.64   582.65   568.94   
 554.29   541.05   528.85   516.76   503.84   491.30   479.42   468.39   457.51   448.10   
 438.87   429.39   419.81   409.55   398.93   388.01   377.61   366.82   355.71   344.49   
 332.49   319.10   302.63   288.34   274.46   260.14   245.22   230.08   213.60   195.55   
 176.85   153.96   120.77   74.94    28.99    24.75    23.33    21.79    21.82    24.37    
 27.28    30.36    33.69    37.33    41.12    45.18    49.92    54.54    59.33    64.21    
 75.62    92.84    78.11    83.97    90.50    97.56    104.90   112.61   120.61   129.07   
 138.09   147.76   158.26   169.44   182.06   196.62   211.76   227.72   245.38   262.32   
 284.52   
370210.56 371772.84 373653.03 375696.95 378212.39 380510.91 381195.48 379072.29 373423.03 364880.29 
 353463.09 339530.52 323356.64 304710.23 284119.40 262821.84 241880.79 220966.75 202216.51 184395.44 
 168288.08 155144.88 144594.20 135549.93 127687.68 120279.87 113583.52 107302.58 101429.83 95704.75 
 90118.70 84696.68 79786.21 75405.46 71046.34 66858.58 62804.50 58702.32 54873.99 51174.38 
 47675.71 44472.74 41577.24 39054.04 36602.57 34208.74 32025.77 29977.28 27949.89 26039.83 
 24367.11 22696.05 21158.24 19732.54 18340.65 17102.49 16004.42 15007.75 14089.94 13207.95 
 12410.49 11620.53 10824.33 10104.35 9404.83  8762.14  8179.46  7625.58  7104.77  6605.93  
 6136.57  5690.59  5258.94  4854.73  4470.16  4120.60  3779.11  3457.51  3160.67  2893.68  
 2645.33  2397.30  2176.84  1979.67  1812.85  1666.78  1537.76  1412.14  1308.51  1226.90  
 1164.88  1099.30  1031.59  970.14   920.14   877.08   841.58   811.23   783.35   758.15   
 737.09   719.11   702.95   688.09   673.29   660.08   646.87   633.63   621.00   609.40   
 598.07   586.87   576.11   565.99   555.41   545.50   534.34   522.92   511.51   500.56   
 489.09   478.50   467.74   457.66   447.12   436.61   426.25   416.70   406.59   397.09   
 387.33   377.76   367.69   357.57   347.02   336.47   325.47   312.67   297.99   284.20   
 268.64   252.91   234.80   216.59   189.06   177.01   166.73   152.18   105.71   46.83    
 40.44    37.53    34.27    34.04    37.89    42.16    46.75    51.78    57.18    62.80    
 68.68    74.19    80.23    92.54    117.18   96.08    103.13   110.56   118.74   127.56   
 136.37   145.62   155.43   165.64   177.04   189.75   204.80   220.94   238.03   256.01   
 284.52   
370210.56 372327.27 375080.07 378551.83 382822.60 386652.40 388391.66 387259.94 383091.37 375567.45 
 364843.76 351555.79 336422.68 318974.69 299287.26 278074.98 257265.02 236916.06 218036.32 200358.62 
 184395.20 170665.88 159215.00 149289.88 140765.05 132846.36 125487.73 117797.26 111546.18 105309.49 
 99189.66 93237.12 87678.01 82284.76 77023.62 72234.98 67497.77 63157.27 59175.57 55474.38 
 52104.27 48891.65 45830.89 43016.92 40355.63 37822.37 35175.34 32713.56 30479.18 28345.66 
 26305.68 24320.16 22544.82 20933.74 19470.62 18175.11 16984.02 15924.53 14929.52 13883.51 
 12936.19 12055.46 11301.59 10548.98 9852.05  9187.74  8571.47  8007.02  7454.65  6921.66  
 6398.06  5930.79  5449.99  5033.93  4646.98  4282.37  3931.61  3584.19  3267.30  2979.58  
 2715.00  2471.50  2246.64  2047.79  1879.05  1730.67  1591.30  1458.44  1346.50  1262.44  
 1203.52  1129.36  1055.06  990.39   935.43   891.62   854.71   824.49   798.51   772.87   
 750.18   730.84   715.64   702.15   689.03   676.56   664.56   653.52   643.22   632.29   
 621.65   611.23   601.07   590.78   580.84   571.12   561.74   552.44   541.73   530.10   
 519.24   509.03   498.57   488.41   479.08   469.23   459.59   450.13   440.22   430.24   
 420.99   410.11   400.16   389.10   378.68   367.05   343.65   333.17   323.88   313.94   
 302.78   290.76   279.76   269.25   258.83   248.11   236.65   219.35   209.48   200.15   
 182.13   113.55   44.59    42.25    42.15    45.14    50.07    55.93    61.03    66.99    
 73.87    80.72    87.36    93.21    100.52   138.48   110.82   114.19   121.71   129.98   
 138.60   148.06   157.75   167.53   178.37   191.33   205.81   222.28   240.60   258.93   
 284.52   
370210.56 372815.96 375789.42 379801.85 384680.56 389217.50 391663.88 391310.32 388321.29 381843.27 
 372048.31 359457.27 344622.31 327357.37 308694.14 288878.12 268586.38 248194.40 227830.65 209694.98 
 193752.92 179578.79 167532.39 157214.13 148272.72 140079.44 132306.34 124965.92 118109.27 111395.19 
 104714.69 98393.00 92539.62 86808.78 81428.90 75958.07 71183.45 66780.47 62716.90 58943.14 
 55280.86 51692.34 48579.27 45679.93 42780.46 39870.89 37122.52 34640.01 32237.22 29891.19 
 27667.80 25776.11 23884.42 21995.28 20356.25 18915.41 17662.05 16534.05 15430.25 14408.09 
 13411.04 12536.88 11688.44 10911.41 10177.92 9514.94  8878.49  8283.22  7713.96  7175.05  
 6625.58  6133.77  5672.57  5257.16  4852.72  4461.03  4077.01  3723.01  3400.19  3104.60  
 2840.50  2576.41  2312.98  2105.33  1925.61  1768.47  1621.26  1483.36  1365.05  1277.79  
 1209.26  1148.56  1073.70  1006.40  943.19   894.07   854.19   821.93   793.28   767.90   
 744.90   725.73   710.17   696.71   684.98   674.33   663.68   653.52   643.75   634.26   
 624.83   615.35   605.67   596.20   586.82   577.74   568.48   559.18   549.89   540.80   
 530.71   521.28   512.11   502.86   493.52   484.26   474.67   465.45   455.90   446.68   
 437.25   427.10   416.36   405.41   394.54   383.93   373.04   348.98   338.82   329.61   
 320.49   311.22   301.09   290.70   280.65   270.13   259.79   249.49   238.89   228.28   
 215.95   188.92   56.70    46.98    46.25    47.83    52.79    58.88    65.41    71.86    
 78.85    85.88    93.43    101.11   108.21   132.62   151.39   120.92   128.73   136.55   
 145.16   154.55   164.55   174.94   185.44   198.38   212.98   228.79   246.27   264.93   
 284.52   
370210.56 373049.18 376480.73 380749.68 385501.02 389293.60 391229.82 390733.58 387799.34 381397.59 
 371835.53 359155.67 344111.25 326748.43 307582.87 286975.71 266057.71 245278.45 225766.93 207573.97 
 191373.02 177249.62 165164.93 154603.45 145402.20 137203.06 129606.57 122351.72 115595.12 108843.45 
 102091.79 95909.74 90073.26 84176.50 78706.79 73644.63 68708.61 64122.21 59989.68 56197.17 
 52878.58 49631.81 46488.56 43674.68 41081.47 38395.15 35775.35 33290.77 31072.71 28904.28 
 26813.27 24792.24 22941.96 21267.37 19732.88 18373.80 17150.86 16055.78 15025.14 14006.89 
 13071.95 12191.57 11439.87 10689.45 9939.03  9277.63  8658.77  8097.67  7554.33  7017.55  
 6510.14  6013.81  5541.36  5107.47  4719.26  4354.34  3998.07  3647.49  3329.46  3038.61  
 2770.07  2518.97  2284.89  2076.41  1900.41  1748.79  1605.83  1470.57  1351.82  1262.51  
 1209.18  1134.33  1059.29  994.32   937.04   889.25   851.50   820.33   793.01   768.28   
 745.04   724.62   708.29   694.67   682.02   670.08   658.86   648.18   637.93   627.91   
 618.01   608.16   598.32   588.60   578.96   570.41   562.13   552.45   541.66   530.29   
 519.56   508.88   497.82   487.27   476.50   465.87   455.45   444.48   433.83   423.32   
 413.25   402.45   390.95   378.11   364.52   347.42   332.54   327.11   319.37   310.62   
 300.29   288.96   278.32   266.35   255.23   243.77   227.26   211.30   199.11   185.92   
 141.31   93.64    45.94    43.79    44.18    49.14    55.70    62.49    69.51    77.09    
 84.98    93.39    102.12   110.86   126.33   151.69   127.66   135.20   142.05   149.35   
 156.98   165.61   175.54   186.02   197.08   209.85   224.15   241.34   258.56   277.02   
 284.52   
370210.56 373009.59 375814.10 379097.16 382731.12 385951.44 387649.43 387621.59 385398.95 380284.87 
 371737.08 360310.07 346040.67 328693.86 308486.53 287047.36 265060.19 243486.44 221937.62 202355.31 
 184966.77 169918.55 157051.18 145883.71 136531.49 128358.84 120737.45 113971.31 107405.29 101064.30 
 95040.65 89137.53 83850.73 78882.40 74116.88 69463.90 64980.97 60854.37 56800.36 52876.45 
 49261.89 46080.98 43184.03 40658.47 38102.82 35690.53 33375.05 31233.68 29117.51 27130.93 
 25411.51 23692.08 21974.89 20432.76 19023.70 17743.81 16623.39 15574.26 14594.39 13682.63 
 12875.98 12088.31 11314.38 10551.79 9862.78  9187.04  8578.75  8017.84  7466.34  6967.57  
 6492.17  6028.60  5583.78  5166.65  4755.85  4371.19  4016.55  3681.10  3377.04  3086.25  
 2835.56  2584.87  2334.61  2120.44  1928.25  1764.25  1622.71  1495.78  1379.36  1277.07  
 1196.91  1136.10  1077.56  1010.00  949.37   898.69   857.90   822.60   792.66   765.17   
 740.58   720.37   702.60   686.73   671.70   657.49   643.88   630.51   618.26   606.26   
 594.57   582.80   571.77   560.61   550.23   539.73   529.42   518.31   507.88   496.49   
 484.88   473.32   461.51   450.21   438.83   427.59   417.30   407.00   396.19   385.42   
 375.22   365.04   354.36   344.02   333.68   322.86   311.98   298.75   283.93   269.83   
 254.87   239.71   224.53   206.89   189.94   177.22   160.49   132.34   49.29    37.98    
 37.28    36.23    38.19    43.31    48.93    54.88    61.24    67.89    75.17    83.09    
 91.62    99.84    109.69   136.16   122.68   129.61   137.08   145.80   154.35   162.94   
 171.53   180.22   189.60   199.91   211.66   224.76   239.07   254.05   270.68   288.45   
 284.52   
370210.56 372689.77 374690.79 376529.50 378168.73 379801.95 380490.37 379586.83 376610.30 370843.62 
 361211.13 348495.18 333138.49 315580.68 295429.05 273473.28 250772.76 229073.01 208253.58 188867.15 
 171077.38 155717.19 142477.40 131394.77 122033.86 115114.55 108214.49 101314.45 95357.78 89793.96 
 84506.70 79842.93 75180.96 70898.82 66873.29 63273.50 59649.49 56108.43 52787.05 49719.09 
 46811.77 43953.44 41139.07 38483.33 36026.84 33619.60 31315.67 29174.95 27213.76 25404.50 
 23727.74 22217.34 20724.39 19413.49 18187.36 17013.42 15938.87 14960.17 14061.45 13210.90 
 12416.18 11710.76 11005.99 10301.22 9646.85  9026.24  8451.66  7923.61  7404.80  6898.10  
 6414.38  5957.34  5533.79  5124.97  4745.54  4392.85  4064.87  3738.32  3431.83  3148.40  
 2897.26  2666.45  2442.24  2233.50  2049.95  1879.07  1729.56  1601.09  1482.85  1375.52  
 1285.15  1210.16  1141.05  1071.98  1009.98  953.46   903.86   861.15   823.68   788.80   
 758.05   730.54   706.68   684.79   664.13   644.74   625.71   608.26   591.74   575.67   
 560.24   545.55   531.13   517.31   503.76   490.47   477.75   464.29   451.00   438.27   
 425.51   413.39   401.71   390.21   378.97   368.12   356.75   344.04   332.00   321.23   
 311.89   299.03   284.54   270.03   254.40   239.11   224.68   210.60   195.02   176.96   
 154.79   129.68   86.31    42.76    31.98    26.04    25.21    27.26    30.73    34.55    
 38.77    43.31    48.29    53.67    59.40    65.74    72.91    80.18    88.00    107.29   
 111.12   108.23   115.73   123.63   131.47   139.44   147.65   156.09   164.51   173.29   
 182.47   193.19   204.54   213.46   225.65   239.78   253.92   268.72   284.31   301.03   
 284.52   
370210.56 372239.11 373349.33 373664.49 373579.28 373049.28 371673.64 368959.72 363471.51 355415.01 
 345359.96 333375.46 318555.36 301221.99 281898.02 261335.33 239619.36 217915.18 197171.39 178110.27 
 160408.50 144574.11 131105.09 119980.15 110707.89 102818.86 96026.06 90107.95 84703.28 79648.95 
 74843.04 70303.76 66420.36 62503.22 59117.19 55875.69 52838.48 50047.21 47351.47 44719.61 
 42150.27 39845.13 37692.45 35591.59 33531.88 31622.88 29761.96 27960.80 26204.46 24564.89 
 22927.15 21438.36 20007.78 18656.56 17397.96 16261.92 15194.96 14216.00 13298.38 12457.35 
 11729.60 11069.94 10447.22 9835.73  9258.49  8710.44  8189.98  7701.89  7242.27  6785.77  
 6357.12  5947.17  5562.40  5173.86  4804.85  4462.52  4134.66  3823.46  3534.60  3272.71  
 3022.34  2799.11  2575.88  2353.15  2171.72  2003.93  1855.85  1718.77  1594.38  1482.76  
 1383.79  1297.04  1222.93  1142.13  1064.78  994.85   932.23   872.39   818.25   763.15   
 718.12   677.52   641.02   607.26   576.77   548.73   523.73   501.03   479.42   459.65   
 441.48   424.50   409.74   392.72   377.64   363.15   347.49   331.67   316.50   301.63   
 286.37   271.11   255.63   240.18   224.75   210.18   195.03   180.77   164.93   147.51   
 126.99   102.93   75.12    52.41    36.42    30.47    20.32    14.41    15.45    16.90    
 18.60    20.44    22.49    24.86    27.42    30.37    33.63    37.62    42.18    47.00    
 52.28    59.61    75.41    68.71    71.81    77.03    83.08    89.84    96.97    104.28   
 111.94   119.85   128.82   137.02   145.57   154.40   163.21   172.45   181.66   191.71   
 203.03   213.67   223.58   234.67   246.98   260.45   273.80   287.76   302.46   317.74   
 284.52   
370210.56 371534.28 371703.35 370832.45 369596.62 367293.51 363037.85 355755.47 346860.95 337041.00 
 325113.89 311306.47 295422.76 278015.80 258812.81 238168.43 217569.29 197349.72 178677.11 160533.96 
 143702.09 128980.93 118397.78 107954.84 97512.80 90328.87 84216.70 78793.10 73806.48 68998.14 
 64523.68 60404.44 56608.94 53160.63 50039.94 47123.95 44431.41 41847.61 39473.19 37200.60 
 35106.93 33109.91 31228.50 29439.16 27757.49 26017.38 24352.00 22758.52 21229.00 19806.96 
 18472.59 17222.20 16063.58 15052.17 14046.09 13135.02 12319.79 11619.30 10919.76 10220.23 
 9574.70  8995.85  8477.62  7983.24  7479.06  7027.32  6608.55  6186.07  5775.98  5392.10  
 5034.93  4704.48  4386.35  4085.07  3798.40  3533.11  3276.84  3027.47  2793.01  2580.76  
 2382.74  2202.09  2025.61  1857.64  1704.51  1568.36  1439.60  1313.30  1197.86  1100.96  
 1004.21  923.56   856.78   791.67   725.75   663.11   604.85   551.26   502.71   458.06   
 408.04   370.89   335.37   304.35   275.62   248.81   224.37   201.87   183.01   165.69   
 149.30   133.74   118.91   104.09   89.57    76.81    65.33    55.69    36.61    13.76    
 7.99     7.69     7.96     8.36     8.84     9.37     10.09    10.92    12.16    13.65    
 15.15    16.59    18.16    20.08    22.19    23.55    24.19    25.44    26.93    28.71    
 30.65    32.71    34.76    37.16    40.54    45.22    48.74    51.88    56.53    60.90    
 64.82    69.13    73.65    78.12    84.31    90.80    97.76    105.03   112.53   120.50   
 128.70   137.30   146.06   155.09   164.29   173.86   183.59   193.69   203.88   214.65   
 225.95   237.63   249.31   262.33   275.23   287.91   301.03   315.22   329.30   343.72   
 284.52   
370210.56 371052.14 370825.93 369686.53 367557.26 363389.64 355551.69 345319.50 334196.99 321772.01 
 307256.07 291383.99 274321.29 255795.39 235568.01 215401.08 194663.85 174881.68 156129.14 138680.96 
 123166.90 111644.34 100168.34 88692.34 81209.64 75086.85 69699.09 64626.58 59832.73 55574.16 
 51607.74 47707.43 44175.67 41008.32 38291.40 35630.43 33259.85 30923.74 28860.03 26922.52 
 25013.97 23387.32 21850.21 20415.86 19037.51 17655.89 16289.88 14994.54 13805.73 12665.07 
 11703.87 10746.22 9788.59  8982.46  8229.73  7567.27  6983.64  6421.53  5898.17  5402.22  
 4963.76  4557.60  4176.02  3831.61  3504.71  3191.50  2907.41  2639.93  2395.66  2158.39  
 1936.69  1724.28  1525.62  1336.08  1168.05  1014.66  861.45   727.06   608.10   505.85   
 415.42   336.69   267.07   207.93   153.05   96.38    39.68    12.11    8.99     8.28     
 7.82     7.42     7.13     7.25     7.36     7.38     6.93     6.84     7.11     7.51     
 7.94     8.19     8.53     8.92     9.34     9.77     10.17    10.65    11.13    11.64    
 12.13    12.77    13.44    14.05    14.79    15.63    16.57    17.53    18.54    19.65    
 20.89    22.14    23.49    24.93    26.47    28.15    29.98    31.93    34.05    36.35    
 38.75    41.32    44.11    47.15    50.45    53.90    57.65    61.80    66.29    71.21    
 76.62    82.61    89.24    96.93    105.44   114.71   124.76   135.39   147.01   159.71   
 172.93   186.48   200.25   214.11   228.31   243.64   258.98   272.74   286.56   300.26   
 313.36   325.55   337.15   348.14   357.83   366.74   374.70   381.16   386.40   390.22   
 393.47   394.36   393.55   391.20   386.90   380.32   373.07   364.44   354.86   344.03   
 284.52   
370210.56 370567.21 370800.14 370394.47 369065.36 365808.11 358543.36 348081.03 336651.87 323315.52 
 307100.17 285937.00 262447.36 238873.78 215330.58 195150.49 173134.65 151345.88 131899.44 115833.02 
 102114.60 88280.54 76291.12 67767.70 61528.11 56156.80 51013.91 45461.80 40762.49 37185.98 
 33785.26 30045.43 27000.44 24601.77 22200.68 19515.70 17536.30 15856.03 14245.75 12867.67 
 11579.94 10355.61 9223.79  8346.39  7506.54  6665.11  5826.74  4925.18  4056.32  3274.38  
 2658.62  2044.84  1635.66  1335.09  1086.57  897.39   732.84   594.68   485.03   392.33   
 320.98   272.97   224.96   177.12   146.62   121.77   102.12   85.76    74.00    64.22    
 56.14    49.25    44.03    39.56    35.46    32.23    29.15    25.62    21.86    18.68    
 16.37    14.31    12.50    10.66    8.82     7.23     6.32     6.10     6.10     6.11     
 6.19     6.35     6.56     6.80     7.08     7.39     7.71     8.07     8.46     8.87     
 9.30     9.70     10.19    10.69    11.21    11.73    12.31    12.94    13.63    14.36    
 15.14    15.99    16.96    17.96    19.01    20.16    21.39    22.69    24.04    25.53    
 27.10    28.82    30.62    32.60    34.60    36.75    39.17    41.76    44.34    47.26    
 50.27    53.48    56.94    60.61    64.40    68.38    72.70    77.10    81.96    87.65    
 94.25    101.04   107.79   115.08   124.73   134.38   144.83   156.20   168.38   181.18   
 194.70   208.44   222.24   236.75   251.02   265.41   279.66   293.06   306.84   319.75   
 331.97   343.40   354.10   363.89   372.72   380.58   386.90   391.91   395.46   397.78   
 398.07   396.71   393.67   389.40   383.27   375.24   365.69   354.91   342.64   329.31   
 284.52   
370210.56 370484.98 371394.23 371482.69 370340.26 367340.08 350665.08 326932.22 308347.57 285418.19 
 261412.65 240112.40 212777.12 190614.22 171700.71 146001.78 126003.18 109360.99 92760.78 76160.57 
 60838.11 52135.91 46147.55 41476.46 37335.56 33806.74 30575.88 27517.92 24724.57 22146.83 
 18923.03 15589.00 12824.12 10554.22 8289.96  6811.02  5455.31  4128.78  2932.40  2153.19  
 1296.04  973.52   657.61   492.11   379.31   305.03   246.91   204.00   170.24   141.99   
 123.14   104.39   85.64    74.73    67.30    60.33    54.87    49.60    45.71    42.42    
 39.72    37.73    35.88    34.36    32.73    31.23    29.86    28.42    26.67    24.93    
 22.77    20.82    19.17    17.71    16.46    15.45    14.32    13.26    12.27    11.34    
 10.47    9.67     8.91     8.28     7.75     7.40     7.29     7.27     7.32     7.44     
 7.54     7.71     7.90     8.18     8.48     8.81     9.21     9.60     10.03    10.49    
 10.98    11.50    12.05    12.65    13.29    13.99    14.72    15.49    16.27    17.13    
 18.04    19.04    20.09    21.20    22.36    23.65    25.06    26.52    28.00    29.62    
 31.40    33.25    35.19    37.28    39.51    41.86    44.36    47.07    49.90    52.90    
 56.07    59.42    62.99    66.83    70.94    75.25    80.04    85.31    91.05    97.30    
 104.11   111.44   119.50   128.56   138.66   149.47   160.71   172.73   185.08   198.28   
 212.25   226.32   241.18   256.05   269.66   282.92   296.42   310.02   322.80   334.58   
 345.71   356.32   366.07   374.39   381.61   387.88   392.76   396.38   398.35   398.68   
 396.96   393.68   388.48   382.47   373.94   363.54   352.22   339.63   325.58   310.17   
 284.52   
370210.56 370024.22 371373.47 371865.68 369248.34 346940.40 328302.19 305055.52 283219.25 257181.79 
 231144.30 205129.14 181784.54 154124.31 132453.73 105405.08 92453.62 80987.94 70834.09 61967.24 
 54128.38 47778.23 42523.08 32871.22 27527.92 22178.19 16141.76 13821.23 9315.27  6709.90  
 4140.25  1585.32  964.62   670.17   480.35   347.03   265.52   184.38   144.83   117.35   
 96.33    80.55    68.15    60.15    54.02    49.28    45.62    42.77    40.10    37.97    
 36.02    34.42    33.03    31.69    30.41    29.12    28.21    27.84    27.62    27.31    
 26.73    25.90    24.80    23.61    22.20    20.61    19.13    18.05    16.86    15.86    
 14.89    14.00    13.12    12.46    11.87    11.32    10.68    10.14    9.65     9.21     
 8.74     8.35     8.02     7.72     7.51     7.40     7.40     7.43     7.50     7.62     
 7.78     7.97     8.17     8.44     8.74     9.08     9.45     9.82     10.26    10.74    
 11.24    11.75    12.33    12.95    13.61    14.29    15.03    15.84    16.71    17.60    
 18.58    19.61    20.72    21.89    23.13    24.48    25.96    27.53    29.14    30.89    
 32.83    34.91    37.14    39.43    41.87    44.47    47.26    50.27    53.40    56.72    
 60.27    63.98    68.06    72.34    76.81    81.63    87.04    92.71    98.74    105.37   
 112.78   121.38   130.00   139.25   149.35   160.19   171.72   183.87   196.67   210.03   
 223.87   237.92   251.73   266.47   280.75   295.07   309.12   322.38   335.26   347.13   
 358.17   368.21   377.04   384.90   391.11   395.91   399.30   400.94   401.06   400.13   
 397.55   392.97   386.94   379.01   369.16   357.70   344.85   330.74   315.45   298.86   
 284.52   
370210.56 369758.66 371058.63 371428.38 352207.81 330666.98 305139.03 279758.25 255011.68 226678.74 
 200870.78 172761.43 145534.53 124761.82 113390.20 102118.15 90846.11 79887.68 70025.83 52949.77 
 42130.95 33101.30 22927.01 17434.98 12655.39 7393.10  5632.49  3908.65  2184.82  460.98   
 304.19   230.63   173.78   140.90   119.66   98.56    82.82    71.47    64.61    59.74    
 53.66    47.15    42.22    38.26    35.82    34.53    31.44    29.51    28.27    27.01    
 25.71    24.69    23.97    23.41    23.00    22.77    22.42    21.85    21.12    20.27    
 19.26    18.19    16.99    15.86    14.92    14.08    13.48    12.93    12.44    11.98    
 11.57    11.18    10.78    10.39    9.98     9.59     9.20     8.88     8.59     8.36     
 8.15     7.99     7.84     7.75     7.71     7.70     7.71     7.79     7.90     8.02     
 8.19     8.39     8.61     8.87     9.16     9.49     9.85     10.25    10.68    11.14    
 11.63    12.13    12.71    13.34    14.01    14.74    15.51    16.33    17.24    18.17    
 19.16    20.27    21.48    22.78    24.16    25.64    27.24    28.91    30.73    32.68    
 34.73    36.92    39.33    41.84    44.53    47.34    50.44    53.73    57.20    60.86    
 64.72    68.78    73.19    77.92    82.98    88.32    94.10    100.48   107.37   114.75   
 122.68   131.14   140.35   150.49   161.38   172.94   184.97   197.46   210.78   224.44   
 239.06   253.70   267.57   281.43   295.33   308.85   321.89   334.58   347.04   358.95   
 369.99   379.85   388.47   395.42   401.02   404.74   406.60   406.88   405.67   402.90   
 398.91   393.52   386.73   377.88   368.09   355.57   342.28   327.48   311.20   293.56   
 284.52   
370210.56 368317.46 369389.65 369470.06 347513.58 324124.68 299928.45 266142.20 239106.44 212045.36 
 181736.64 154141.37 132332.88 122565.09 112044.69 101488.31 90869.31 77764.64 58899.65 43488.36 
 29598.15 22560.29 15538.67 10500.09 5461.52  466.15   309.70   215.23   121.17   69.43    
 50.30    39.60    33.86    30.45    27.63    25.56    24.02    22.88    21.90    20.89    
 20.10    19.52    18.81    18.03    17.66    17.30    16.94    16.82    16.80    16.82    
 16.92    16.90    16.93    16.89    16.73    16.32    15.74    15.07    14.28    13.62    
 12.99    12.47    12.03    11.84    11.86    11.84    11.84    11.83    11.76    11.59    
 11.42    11.32    11.13    10.97    10.77    10.53    10.21    9.87     9.57     9.32     
 9.11     8.90     8.79     8.71     8.61     8.58     8.59     8.62     8.66     8.76     
 8.87     9.01     9.16     9.36     9.59     9.85     10.14    10.48    10.86    11.31    
 11.80    12.30    12.82    13.41    14.03    14.73    15.43    16.20    17.04    17.98    
 18.98    20.03    21.20    22.46    23.82    25.33    26.89    28.52    30.26    32.23    
 34.31    36.65    39.14    41.67    44.36    47.35    50.51    53.92    57.47    61.30    
 65.36    69.72    74.34    79.26    84.55    90.21    96.41    103.11   110.11   118.82   
 127.52   136.24   146.06   156.58   167.84   180.00   192.52   205.73   219.46   233.42   
 248.11   262.71   276.79   291.30   305.34   319.20   332.75   345.09   357.42   368.96   
 379.33   389.30   398.19   405.93   411.75   416.17   418.68   418.80   416.95   413.32   
 408.17   402.28   395.03   386.03   375.64   363.46   349.41   333.52   315.52   297.54   
 284.52   
370210.56 367688.37 368096.77 367626.16 343775.80 319748.62 295143.18 260489.82 237336.39 206572.74 
 176389.23 146055.29 129453.30 119536.85 108679.44 97811.21 87042.25 66677.15 50649.14 38066.55 
 27034.98 16709.28 13321.25 10012.79 6704.33  3395.88  87.42    38.71    33.00    29.27    
 25.81    24.03    22.17    19.88    17.55    15.87    14.22    12.84    11.94    11.24    
 11.03    10.77    10.83    10.35    9.91     9.64     10.02    10.44    10.91    11.52    
 12.09    12.45    12.79    13.30    13.81    13.93    13.85    13.54    13.24    12.86    
 12.39    11.88    11.33    10.82    10.33    9.95     9.67     9.40     9.21     9.03     
 8.87     8.71     8.62     8.45     8.35     8.20     8.10     7.98     7.85     7.78     
 7.75     7.73     7.74     7.78     7.94     8.10     8.26     8.45     8.67     8.92     
 9.14     9.40     9.67     9.97     10.31    10.66    11.02    11.40    11.82    12.28    
 12.75    13.25    13.76    14.35    14.99    15.67    16.37    17.13    17.96    18.88    
 19.85    20.93    22.09    23.37    24.75    26.24    27.86    29.61    31.49    33.48    
 35.62    37.93    40.41    43.12    46.00    48.96    52.31    55.89    59.69    63.71    
 68.01    72.69    77.65    82.89    88.52    94.41    100.83   107.88   115.49   123.71   
 132.47   141.79   151.93   163.05   174.80   187.05   199.80   213.01   227.04   242.41   
 257.78   272.59   287.17   301.45   315.76   329.35   342.32   354.81   366.56   377.56   
 387.65   396.79   405.28   412.72   418.67   422.62   424.74   424.72   422.69   418.31   
 412.00   404.94   397.00   387.79   377.72   366.51   354.22   338.89   322.92   304.70   
 284.52   
