IESNA:LM-63-2002
[TEST] 1
[TESTLAB] AOK
[TESTDATE] 2022-06-25
[ISSUEDATE] 2022-06-25 15:53:35
[NEARFIELD] 
[LAMPPOSITION] 0,0
[OTHER] EVERFINE GO-2000A_V1 SYSTEM
[MANUFAC] AOK
[LUMCAT] A
[LUMINAIRE] AOK-600WiSF-NV-S35-00-5070-2030D-P
[LAMPCAT] B
[LAMP] 3535
[BALLAST] E
[BALLASTCAT] F
[OTHER] 
[OTHER] Gamma(deg)    Fz(lm)      Ft(lm)     %Lum    %Lamp
[OTHER]   0- 10     22668.01    22668.01    32.09    32.09
[OTHER]  10- 20     23998.32    46666.33    66.06    66.06
[OTHER]  20- 30      9830.79    56497.12    79.98    79.98
[OTHER]  30- 40      4901.55    61398.67    86.92    86.92
[OTHER]  40- 50      3138.99    64537.66    91.36    91.36
[OTHER]  50- 60      2473.99    67011.66    94.86    94.86
[OTHER]  60- 70      1698.10    68709.75    97.27    97.27
[OTHER]  70- 80       811.75    69521.50    98.41    98.41
[OTHER]  80- 90       351.00    69872.50    98.91    98.91
[OTHER]  90-100       195.38    70067.88    99.19    99.19
[OTHER] 100-110       143.62    70211.50    99.39    99.39
[OTHER] 110-120       115.80    70327.31    99.56    99.56
[OTHER] 120-130        87.84    70415.14    99.68    99.68
[OTHER] 130-140        63.38    70478.53    99.77    99.77
[OTHER] 140-150        51.26    70529.79    99.84    99.84
[OTHER] 150-160        52.70    70582.49    99.92    99.92
[OTHER] 160-170        43.13    70625.62    99.98    99.98
[OTHER] 170-180        15.61    70641.23   100.00   100.00
[OTHER] 
TILT=NONE
1 70641 1 181 25 1 2 0.150 0.200 0.000
1.000 1 570.427
0.0    1.0    2.0    3.0    4.0    5.0    6.0    7.0    8.0    9.0    
 10.0   11.0   12.0   13.0   14.0   15.0   16.0   17.0   18.0   19.0   
 20.0   21.0   22.0   23.0   24.0   25.0   26.0   27.0   28.0   29.0   
 30.0   31.0   32.0   33.0   34.0   35.0   36.0   37.0   38.0   39.0   
 40.0   41.0   42.0   43.0   44.0   45.0   46.0   47.0   48.0   49.0   
 50.0   51.0   52.0   53.0   54.0   55.0   56.0   57.0   58.0   59.0   
 60.0   61.0   62.0   63.0   64.0   65.0   66.0   67.0   68.0   69.0   
 70.0   71.0   72.0   73.0   74.0   75.0   76.0   77.0   78.0   79.0   
 80.0   81.0   82.0   83.0   84.0   85.0   86.0   87.0   88.0   89.0   
 90.0   91.0   92.0   93.0   94.0   95.0   96.0   97.0   98.0   99.0   
 100.0  101.0  102.0  103.0  104.0  105.0  106.0  107.0  108.0  109.0  
 110.0  111.0  112.0  113.0  114.0  115.0  116.0  117.0  118.0  119.0  
 120.0  121.0  122.0  123.0  124.0  125.0  126.0  127.0  128.0  129.0  
 130.0  131.0  132.0  133.0  134.0  135.0  136.0  137.0  138.0  139.0  
 140.0  141.0  142.0  143.0  144.0  145.0  146.0  147.0  148.0  149.0  
 150.0  151.0  152.0  153.0  154.0  155.0  156.0  157.0  158.0  159.0  
 160.0  161.0  162.0  163.0  164.0  165.0  166.0  167.0  168.0  169.0  
 170.0  171.0  172.0  173.0  174.0  175.0  176.0  177.0  178.0  179.0  
 180.0  
0.0    15.0   30.0   45.0   60.0   75.0   90.0   105.0  120.0  135.0  
 150.0  165.0  180.0  195.0  210.0  225.0  240.0  255.0  270.0  285.0  
 300.0  315.0  330.0  345.0  360.0  
315853.75 317128.18 315247.70 308439.94 278449.32 230582.52 186739.21 139167.44 106048.08 73105.19 
 40162.29 22418.04 13281.44 10040.92 6863.77  3686.61  509.46   326.88   147.50   96.08    
 46.23    34.10    26.90    21.72    18.13    15.65    13.57    12.00    10.82    9.84     
 9.18     9.34     9.64     9.67     9.18     8.47     8.01     7.12     6.32     5.64     
 5.37     5.26     4.94     4.80     4.56     4.41     4.41     4.50     4.27     3.92     
 3.79     3.68     3.65     3.67     3.74     3.87     3.81     3.71     3.63     3.62     
 3.62     3.62     3.65     3.66     3.63     3.63     3.61     3.59     3.56     3.55     
 3.55     3.55     3.55     3.53     3.52     3.51     3.51     3.52     3.51     3.50     
 3.49     3.49     3.50     3.53     3.74     3.98     4.11     4.23     4.27     4.32     
 4.37     4.44     4.52     4.53     4.53     4.56     4.65     4.77     4.93     5.12     
 5.36     5.60     5.89     6.21     6.55     6.93     7.31     7.67     8.01     8.35     
 8.68     9.01     9.33     9.64     9.96     10.32    10.72    11.16    11.61    12.10    
 12.60    13.14    13.69    14.29    14.91    15.55    16.24    16.98    17.73    18.52    
 19.35    20.19    21.06    21.95    22.91    23.95    25.21    26.75    28.58    30.72    
 33.16    35.94    39.11    42.75    46.89    51.56    56.86    62.94    69.66    77.84    
 87.57    98.64    110.97   124.29   138.31   152.94   169.02   185.26   201.22   216.59   
 232.30   248.01   260.92   271.78   280.25   285.68   288.32   288.05   285.08   279.80   
 272.64   263.92   253.97   243.13   231.49   219.32   207.01   194.18   180.10   164.68   
 148.37   
315853.75 316875.08 315556.02 309886.39 296849.96 251194.28 205571.63 163257.80 115254.63 82968.76 
 53769.90 40713.73 27657.56 14601.40 1659.54  1431.80  1243.77  830.35   770.69   623.45   
 505.76   409.72   313.69   217.93   154.52   123.70   92.87    73.53    57.89    46.09    
 40.84    36.67    34.41    28.00    19.87    16.02    13.49    11.46    9.95     8.74     
 8.11     8.12     8.11     8.07     7.73     7.43     7.18     6.96     6.79     6.49     
 6.11     5.85     5.60     5.39     5.19     5.00     4.82     4.64     4.52     4.39     
 4.21     4.06     3.89     3.74     3.60     3.51     3.42     3.33     3.27     3.20     
 3.12     3.04     2.98     2.92     2.88     2.84     2.80     2.79     2.79     2.80     
 2.82     2.85     2.89     2.93     2.98     3.05     3.10     3.18     3.27     3.36     
 3.48     3.59     3.69     3.82     3.96     4.12     4.30     4.50     4.72     4.96     
 5.22     5.49     5.78     6.10     6.44     6.78     7.13     7.47     7.80     8.13     
 8.47     8.80     9.15     9.51     9.87     10.27    10.72    11.21    11.71    12.22    
 12.76    13.34    13.96    14.59    15.26    15.95    16.69    17.47    18.27    19.10    
 19.94    20.81    21.70    22.64    23.71    24.93    26.46    28.22    30.30    32.67    
 35.47    38.56    42.05    45.96    50.34    55.42    61.13    67.67    75.26    84.13    
 94.33    105.73   119.18   132.65   147.11   162.22   177.81   193.23   209.08   224.32   
 239.24   252.94   265.10   275.16   282.25   286.28   287.31   285.54   281.11   274.55   
 266.50   257.02   246.75   235.83   224.21   212.15   199.52   185.88   171.47   157.31   
 148.37   
315853.75 315932.22 313789.03 307254.31 296939.90 268430.35 223056.10 185278.69 147518.99 116160.13 
 84877.57 53595.02 36078.73 20513.03 14643.64 8471.02  2294.16  2028.65  1726.79  1281.79  
 995.71   711.56   603.76   457.04   341.76   276.50   213.63   159.77   146.08   122.52   
 98.83    81.15    70.26    60.73    53.50    46.40    40.53    34.29    29.45    25.24    
 21.85    18.25    15.91    14.30    13.27    12.28    11.43    10.87    10.30    9.47     
 8.79     8.01     7.20     6.65     6.27     6.00     5.68     5.34     4.99     4.66     
 4.40     4.22     4.08     3.96     3.81     3.63     3.44     3.26     3.12     3.02     
 2.94     2.87     2.80     2.74     2.69     2.64     2.59     2.52     2.49     2.46     
 2.45     2.45     2.50     2.57     2.66     2.73     2.83     2.94     3.07     3.20     
 3.35     3.51     3.69     3.88     4.08     4.29     4.52     4.75     4.99     5.23     
 5.49     5.73     5.99     6.26     6.54     6.84     7.14     7.47     7.81     8.16     
 8.53     8.90     9.30     9.70     10.13    10.58    11.05    11.53    12.02    12.53    
 13.07    13.64    14.23    14.85    15.48    16.13    16.85    17.59    18.37    19.21    
 20.15    21.20    22.46    23.94    25.58    27.50    29.65    32.15    34.91    38.03    
 41.44    45.30    49.54    54.48    60.09    66.34    73.40    81.25    89.95    100.01   
 111.24   123.32   135.87   148.94   162.11   175.48   189.90   204.56   218.62   231.81   
 244.20   256.58   265.48   271.85   275.87   277.30   276.32   272.93   267.79   260.98   
 252.73   243.72   233.88   223.41   212.26   200.80   189.16   176.82   165.39   154.79   
 148.37   
315853.75 315987.67 312899.62 307025.36 297924.56 285374.73 254618.99 223863.23 193091.85 160225.85 
 125391.32 97799.12 68057.77 55241.02 37107.98 28615.73 20123.49 11681.20 8369.83  5058.47  
 1770.50  1525.19  1100.28  785.97   535.94   417.64   299.35   181.88   152.31   130.46   
 112.85   99.01    87.58    78.14    69.94    62.63    55.75    50.34    45.79    41.23    
 36.89    33.11    29.77    26.48    23.64    20.63    17.59    15.14    13.13    11.79    
 10.90    10.16    9.53     9.01     8.55     8.15     7.74     7.39     7.09     6.79     
 6.52     6.24     5.99     5.74     5.55     5.36     5.18     4.96     4.74     4.49     
 4.25     3.99     3.74     3.53     3.33     3.10     2.89     2.72     2.56     2.41     
 2.34     2.34     2.38     2.44     2.52     2.61     2.73     2.84     2.97     3.11     
 3.26     3.43     3.59     3.77     3.97     4.17     4.38     4.60     4.83     5.07     
 5.32     5.58     5.84     6.13     6.44     6.74     7.06     7.39     7.74     8.09     
 8.44     8.83     9.22     9.62     10.02    10.44    10.87    11.32    11.78    12.28    
 12.79    13.34    13.92    14.54    15.21    15.95    16.81    17.81    18.89    20.08    
 21.43    22.98    24.71    26.61    28.74    31.08    33.82    36.76    40.02    43.67    
 47.88    52.53    57.74    63.55    70.01    77.37    85.32    94.13    103.57   113.77   
 125.27   136.77   148.47   160.96   173.41   186.25   198.86   210.68   222.28   232.60   
 241.64   249.06   254.94   259.05   261.19   261.57   260.24   257.24   252.87   247.15   
 241.08   233.72   225.28   216.57   207.25   197.79   187.81   178.12   168.76   160.10   
 148.37   
315853.75 314507.30 309623.35 302505.56 292848.86 281718.59 267754.60 251084.99 232508.75 206773.10 
 172019.33 141230.02 120661.50 98065.57 75446.26 60681.77 41967.49 31425.43 25160.84 18589.89 
 12655.94 9807.36  6994.89  5228.62  4234.91  1701.69  1159.55  942.88   729.33   523.17   
 377.80   281.42   224.64   187.20   156.94   131.76   113.87   96.06    82.49    71.44    
 62.74    55.87    50.14    45.12    40.90    36.83    33.41    30.82    28.50    26.44    
 24.69    22.89    20.79    18.80    16.66    14.61    13.01    11.82    11.05    10.49    
 10.11    9.85     9.55     9.28     9.05     8.87     8.68     8.51     8.35     8.16     
 7.92     7.65     7.32     6.94     6.50     6.01     5.46     4.79     4.11     3.43     
 2.86     2.62     2.60     2.62     2.71     2.80     2.90     3.02     3.14     3.27     
 3.42     3.58     3.75     3.93     4.13     4.34     4.57     4.80     5.06     5.33     
 5.60     5.89     6.19     6.50     6.83     7.16     7.51     7.84     8.20     8.56     
 8.92     9.30     9.67     10.06    10.47    10.89    11.33    11.80    12.29    12.81    
 13.39    14.01    14.73    15.51    16.37    17.33    18.37    19.56    20.88    22.30    
 23.83    25.57    27.51    29.63    32.05    34.74    37.84    41.44    45.50    50.05    
 55.15    60.86    67.09    74.22    82.08    90.41    99.32    108.59   118.23   128.55   
 139.46   150.55   161.46   172.21   182.59   192.54   202.57   211.86   220.09   227.15   
 233.14   238.31   243.47   245.75   246.86   246.79   245.70   243.30   239.87   235.49   
 230.48   224.94   218.74   211.99   204.91   197.74   190.48   183.04   175.35   167.65   
 148.37   
315853.75 313532.55 308747.98 301381.04 291561.81 280372.01 267995.42 252808.01 237620.61 222407.75 
 203900.89 184225.43 163036.41 141181.13 119974.47 100678.37 83573.84 67955.93 54461.33 42061.24 
 33795.07 28777.96 25217.55 21656.29 18000.84 15073.59 13090.24 11395.59 9726.07  7686.83  
 6176.15  5081.36  4150.32  3456.04  2846.97  2239.84  1859.28  1551.65  1256.76  1023.76  
 828.95   655.47   517.00   413.54   334.58   266.34   198.32   156.98   126.14   102.73   
 85.95    73.31    62.97    55.47    48.61    43.54    39.56    35.90    33.19    31.02    
 29.25    27.53    26.18    24.99    23.97    22.81    21.39    19.96    18.80    18.06    
 17.69    17.58    17.47    17.34    17.19    16.97    16.60    15.94    14.48    12.27    
 9.20     5.47     2.34     2.20     2.26     2.33     2.41     2.49     2.58     2.68     
 2.80     2.92     3.07     3.23     3.39     3.58     3.77     3.99     4.22     4.46     
 4.72     4.98     5.26     5.56     5.86     6.18     6.51     6.86     7.23     7.59     
 7.96     8.35     8.76     9.17     9.57     9.98     10.43    10.92    11.42    11.96    
 12.55    13.22    13.95    14.75    15.62    16.63    17.70    18.87    20.17    21.59    
 23.14    24.86    26.84    29.05    31.55    34.41    37.82    41.67    45.99    50.93    
 56.59    62.83    69.62    77.06    85.03    93.57    102.37   111.56   121.43   131.30   
 140.99   150.84   160.22   169.77   179.03   187.96   196.49   204.28   211.89   218.75   
 224.82   230.31   234.97   238.83   241.59   243.39   244.17   244.29   242.70   240.32   
 237.41   233.61   228.81   223.08   216.83   210.00   202.51   194.87   186.51   178.23   
 148.37   
315853.75 311801.77 305541.40 297342.68 286951.36 275926.18 264106.77 251136.73 236617.08 222078.14 
 205693.64 187482.37 168177.02 146672.85 125642.85 105492.82 87863.52 73005.98 61345.78 52016.66 
 44570.02 38457.91 33741.62 29952.46 26721.99 24238.94 21760.62 19678.72 17683.96 15769.93 
 13931.27 12219.13 10705.90 9363.18  8271.92  7380.69  6688.23  6087.97  5595.24  5203.01  
 4853.20  4547.01  4294.63  4118.27  3943.50  3769.29  3574.61  3352.40  3110.24  2852.17  
 2618.31  2384.82  2180.78  1988.21  1811.13  1644.83  1490.14  1342.21  1211.75  1097.67  
 993.51   896.70   805.71   721.38   642.77   569.98   503.55   442.87   388.73   341.26   
 299.91   265.20   230.49   195.90   171.00   149.68   131.65   116.41   101.89   90.06    
 78.60    67.94    55.52    7.25     2.46     2.04     1.68     1.52     1.39     1.31     
 1.21     1.12     1.11     1.11     1.12     1.14     1.17     1.19     1.21     1.24     
 1.28     1.31     1.35     1.38     1.42     1.46     1.50     1.54     1.60     1.65     
 1.69     1.75     1.81     1.87     1.93     1.99     2.07     2.16     2.25     2.35     
 2.45     2.56     2.68     2.81     2.96     3.12     3.31     3.51     3.73     3.98     
 4.27     4.59     4.95     5.37     5.86     6.41     7.04     7.76     8.58     9.47     
 10.50    11.63    12.85    14.18    15.63    17.21    18.83    20.48    22.21    23.99    
 25.84    27.71    29.65    31.65    33.70    35.82    38.07    40.48    43.01    45.66    
 48.39    51.30    54.45    57.86    61.51    65.45    69.70    74.90    80.03    86.25    
 93.35    101.24   109.64   118.61   127.91   137.64   147.60   157.46   166.95   176.03   
 148.37   
315853.75 311354.27 304605.46 296542.80 286820.51 275976.10 265172.35 253585.21 240814.40 226424.73 
 210686.81 192975.33 174344.34 154488.96 135173.36 114880.26 97602.08 80346.19 67174.56 57274.25 
 49755.38 44311.80 39913.64 36324.33 33361.47 30505.68 28023.49 25703.57 23378.52 21174.81 
 18944.87 16894.89 15011.18 13285.75 11773.42 10598.86 9427.06  8595.44  7935.35  7442.22  
 7032.14  6705.85  6410.93  6148.86  5920.48  5721.00  5527.74  5340.48  5160.44  4985.62  
 4795.45  4591.54  4375.98  4148.80  3913.56  3683.82  3462.47  3259.48  3076.92  2903.67  
 2731.29  2575.66  2426.08  2284.50  2150.54  2019.43  1889.14  1765.22  1641.75  1527.43  
 1419.14  1316.88  1216.12  1121.40  1026.74  944.40   864.54   790.17   718.33   656.27   
 599.43   547.60   501.59   460.62   423.81   392.94   365.71   341.00   322.95   303.92   
 285.70   269.20   255.37   241.86   229.72   218.57   207.01   196.25   187.21   177.68   
 169.08   161.05   153.75   146.84   140.07   133.38   127.13   121.73   116.34   110.91   
 105.93   101.22   96.24    91.36    86.36    81.63    77.68    73.42    69.45    64.86    
 60.78    56.99    52.75    48.57    44.27    40.09    35.42    29.00    22.82    16.49    
 12.11    9.70     8.12     6.55     4.94     4.54     4.85     5.38     6.05     6.84     
 7.71     8.69     9.74     10.91    12.19    13.56    14.99    16.51    18.10    19.75    
 21.46    23.15    24.88    26.64    28.41    30.17    32.00    33.90    35.74    37.67    
 39.68    41.80    44.01    46.36    48.81    51.58    54.84    58.87    63.67    69.37    
 76.02    84.22    93.09    102.78   113.29   124.37   135.92   147.73   159.19   170.32   
 148.37   
315853.75 311401.26 305130.34 297240.73 288094.00 278465.05 267773.31 256458.42 242267.32 228046.58 
 210997.67 192264.24 173316.09 154399.81 135201.49 116628.20 99024.28 82756.96 69396.46 59830.99 
 53090.61 48016.13 43937.71 40433.53 37218.09 34290.69 31588.70 28784.67 26263.04 23741.41 
 21221.44 18866.32 16698.56 14729.66 13032.04 11590.11 10357.47 9333.72  8552.14  8010.74  
 7612.74  7314.21  7064.93  6859.80  6665.00  6472.01  6299.61  6125.04  5967.90  5810.08  
 5662.16  5514.35  5343.05  5160.59  4962.14  4761.61  4551.49  4335.40  4115.91  3877.60  
 3657.17  3440.54  3242.66  3056.68  2871.66  2694.02  2516.37  2338.83  2170.25  2001.72  
 1844.40  1697.38  1563.06  1431.12  1309.43  1188.91  1080.03  980.17   889.72   807.70   
 732.22   667.83   615.18   570.38   532.10   497.64   468.17   439.97   418.14   397.09   
 377.41   358.20   341.90   327.24   313.23   300.42   288.99   278.04   268.07   259.01   
 250.17   242.51   234.85   227.21   221.13   215.60   210.14   204.94   200.51   196.09   
 191.91   187.51   183.70   180.04   176.22   172.45   168.94   165.36   161.86   158.57   
 155.63   152.22   149.13   146.15   142.65   139.32   136.07   132.81   129.54   126.43   
 122.70   119.32   115.66   112.03   108.10   103.88   98.91    93.78    88.61    82.96    
 76.89    71.04    63.31    56.93    53.55    51.18    47.95    27.97    18.60    16.62    
 17.05    18.59    20.48    22.45    24.45    26.47    28.50    30.55    32.65    34.76    
 36.92    39.00    41.05    43.17    45.26    47.42    49.81    52.66    55.89    60.00    
 65.16    71.86    79.84    89.17    99.99    111.41   124.44   137.91   151.50   164.81   
 148.37   
315853.75 310910.83 303983.31 295976.88 287213.96 277644.34 266628.39 252493.62 234201.57 211663.81 
 187789.90 165871.35 146369.96 128699.06 114517.08 100362.44 86207.81 75382.82 66240.10 58994.69 
 53310.99 48533.48 44227.74 40028.25 35845.35 31753.06 27732.29 23911.39 20195.42 16884.91 
 14383.47 12675.35 11808.19 10948.53 10088.86 9624.20  9218.21  8846.17  8508.42  8199.46  
 7910.68  7638.42  7391.41  7154.98  6960.48  6764.36  6580.98  6421.62  6253.69  6071.72  
 5886.96  5701.68  5519.18  5355.42  5179.88  4988.71  4799.38  4607.68  4413.97  4213.07  
 4010.51  3802.12  3603.48  3406.12  3205.99  3012.20  2816.08  2621.14  2428.60  2235.68  
 2055.11  1893.79  1735.05  1581.46  1436.69  1303.14  1182.44  1075.71  969.10   883.89   
 809.37   742.80   681.83   631.35   586.76   547.68   510.57   481.81   459.29   438.59   
 417.78   398.90   381.96   367.62   355.14   343.78   333.78   325.19   317.70   310.13   
 303.32   297.43   291.89   286.82   282.10   277.69   273.63   269.99   266.66   262.89   
 259.47   256.05   253.32   250.47   247.35   244.45   241.64   238.83   235.98   232.87   
 229.32   225.90   222.31   218.93   215.56   212.18   208.68   204.75   200.90   197.14   
 193.07   189.18   184.90   180.61   176.24   172.13   167.85   163.61   159.02   154.39   
 149.86   144.85   140.55   135.89   131.51   124.94   118.34   110.75   104.01   95.43    
 90.61    84.34    77.20    74.28    72.45    64.55    34.24    30.00    31.41    32.09    
 33.89    36.04    38.60    41.33    44.05    46.82    49.47    52.09    54.99    58.20    
 62.08    66.82    72.66    79.90    88.57    99.12    112.04   126.52   141.89   157.31   
 148.37   
315853.75 311144.76 304184.25 295956.97 286771.18 276132.93 262100.11 240043.83 217929.79 190219.64 
 163816.80 141490.58 123449.63 109043.63 96984.53 86790.36 77835.49 70239.30 63525.18 57786.01 
 52042.56 46252.35 40127.36 33904.66 29112.51 24320.36 19559.05 17381.05 15965.70 14934.14 
 14074.22 13349.14 12727.06 12172.87 11643.60 11137.55 10645.98 10203.97 9818.09  9441.58  
 9083.73  8757.03  8440.12  8154.43  7885.67  7600.65  7320.46  7045.33  6795.47  6564.17  
 6324.52  6116.34  5915.96  5735.55  5557.88  5384.13  5205.10  5015.61  4816.28  4625.35  
 4439.04  4240.22  4024.92  3794.96  3566.80  3337.66  3112.73  2908.81  2699.21  2489.60  
 2280.27  2094.54  1921.47  1758.47  1594.50  1454.92  1327.15  1209.41  1104.36  1012.00  
 928.98   850.14   781.90   723.12   672.26   625.13   582.57   548.69   520.22   497.20   
 475.34   453.11   433.10   416.08   401.52   389.61   380.62   373.14   366.46   361.02   
 356.48   352.90   349.91   347.15   345.08   343.52   342.00   340.36   338.90   337.86   
 336.99   335.82   334.57   333.26   331.21   328.17   323.97   319.55   314.78   309.06   
 303.14   296.52   290.07   283.80   277.91   272.02   266.39   260.47   254.97   249.38   
 243.45   237.27   231.09   225.82   220.49   215.01   209.70   203.39   196.23   188.43   
 179.31   172.53   166.81   161.67   158.05   155.34   152.39   147.86   144.59   140.04   
 136.18   131.37   121.26   116.30   112.38   106.99   98.38    92.89    87.59    79.59    
 44.52    38.15    39.55    41.26    43.99    47.61    51.27    54.94    58.39    61.59    
 64.69    67.81    71.40    75.75    81.60    89.36    99.83    113.33   128.35   144.45   
 148.37   
315853.75 310621.44 302992.67 293803.38 283297.36 268787.78 249081.72 223564.50 195111.09 165683.37 
 140274.21 120824.64 107890.92 95011.31 85934.18 78494.71 72037.30 66294.67 60681.28 54619.57 
 47330.94 39774.66 32547.55 26578.48 23012.46 21014.01 19829.68 18930.52 18141.35 17439.98 
 16818.30 16292.03 15754.79 15213.51 14605.10 13992.17 13394.99 12774.25 12147.14 11576.28 
 11006.00 10435.71 9945.92  9499.66  9058.18  8632.35  8251.48  7893.39  7553.10  7239.77  
 6945.48  6681.69  6452.58  6268.16  6114.16  5990.02  5964.56  5945.54  5983.42  5860.81  
 5680.07  5391.54  5071.86  4749.08  4404.29  4093.68  3756.99  3441.27  3119.33  2828.95  
 2588.07  2379.61  2169.58  1982.92  1815.69  1668.22  1530.14  1402.14  1283.03  1196.80  
 1097.09  997.27   917.18   850.24   789.83   734.74   685.98   642.23   608.64   579.59   
 553.28   526.82   500.50   478.27   458.96   442.34   428.24   418.17   409.47   403.23   
 398.62   395.35   393.21   391.77   390.68   390.15   390.32   389.76   388.30   386.30   
 384.43   383.64   383.12   382.55   381.52   379.44   377.09   374.07   369.61   364.01   
 357.63   350.65   342.53   334.11   325.55   316.73   308.22   299.79   291.73   284.33   
 277.08   269.69   262.52   255.53   248.88   242.32   224.81   217.61   212.59   208.68   
 203.23   197.37   191.55   185.68   179.73   174.38   168.74   162.44   157.39   152.83   
 148.48   144.84   141.45   138.14   131.44   126.28   121.13   116.28   106.68   95.10    
 88.57    79.19    43.95    45.64    48.93    52.09    56.37    61.01    65.44    69.54    
 72.82    75.70    78.21    80.65    83.71    88.56    95.90    106.45   119.90   136.04   
 148.37   
315853.75 311118.61 303796.91 294441.21 283055.69 266674.06 241399.71 216062.35 185821.86 155231.39 
 131121.39 114103.67 101360.28 91572.28 83836.71 77436.03 71990.35 66712.00 61261.79 54672.45 
 46912.23 38680.78 31419.84 28518.73 25617.63 22740.10 21874.62 21169.45 20581.85 20076.44 
 19570.99 19082.98 18517.66 17864.94 17113.78 16350.27 15485.16 14607.66 13764.05 12982.79 
 12273.58 11613.50 10980.15 10398.26 9842.43  9368.53  8930.64  8532.81  8144.51  7786.34  
 7477.05  7214.85  6984.42  6774.14  6607.93  6658.70  6957.58  7139.12  7296.84  7323.53  
 6976.56  6666.22  6153.93  5704.06  5238.25  4882.49  4389.41  3990.55  3581.82  3220.49  
 2917.41  2675.99  2435.01  2229.70  2041.62  1870.43  1709.77  1567.35  1436.10  1322.76  
 1214.39  1115.44  1024.68  946.58   876.96   812.28   754.14   703.75   659.71   625.54   
 593.74   565.33   535.87   509.14   484.32   464.47   446.67   432.01   420.62   410.77   
 403.58   398.90   395.39   393.31   391.92   390.70   389.71   389.31   387.99   385.20   
 381.76   377.64   374.69   372.16   369.73   367.20   364.41   361.19   357.35   352.76   
 346.47   339.64   332.54   325.01   317.14   309.35   301.48   293.79   286.53   279.53   
 272.53   265.76   258.93   252.23   245.62   238.57   231.44   216.85   208.25   203.39   
 198.79   194.18   189.44   184.49   179.67   174.47   169.82   165.25   160.84   156.54   
 152.20   148.63   146.14   143.59   141.25   138.49   135.47   132.02   128.11   114.97   
 106.86   101.64   73.24    51.38    54.66    57.84    62.31    67.52    72.74    77.64    
 81.85    85.25    87.86    89.75    91.30    93.51    97.57    104.69   115.44   130.16   
 148.37   
315853.75 311079.83 303573.91 294258.37 282504.69 265452.79 242209.70 213036.30 182180.05 152895.71 
 130492.04 118105.06 105803.88 93502.70 86284.72 79944.61 74673.79 69618.35 64612.54 58568.68 
 51246.32 43119.20 35290.42 29229.89 25636.84 23874.00 22899.78 22258.93 21729.69 21260.99 
 20876.09 20420.63 19793.99 19082.53 18259.25 17323.91 16383.69 15407.70 14481.61 13624.69 
 12851.66 12091.34 11421.03 10751.55 10159.88 9629.23  9157.43  8722.72  8312.86  7949.89  
 7610.75  7315.43  7082.83  6846.39  6640.07  6491.11  6541.72  6702.24  6747.00  6718.77  
 6541.83  6180.35  5875.16  5453.24  5106.53  4758.94  4389.62  3986.33  3604.87  3273.48  
 2990.39  2763.22  2540.31  2301.16  2104.83  1923.39  1765.79  1620.47  1482.10  1358.67  
 1251.45  1157.30  1063.25  969.20   897.75   834.48   773.41   720.37   673.89   637.38   
 605.42   576.40   548.57   522.31   496.46   474.57   455.15   439.36   425.84   414.64   
 405.58   397.58   391.28   386.29   381.48   377.24   372.80   368.74   364.03   358.53   
 352.56   346.88   341.55   336.74   332.11   327.30   322.54   317.41   311.74   305.80   
 299.47   293.53   287.55   281.56   275.62   269.86   264.31   258.55   253.02   247.73   
 242.66   237.42   232.05   226.81   221.83   216.68   207.19   199.41   195.14   190.95   
 186.64   182.62   178.86   175.02   170.74   166.38   162.27   157.99   154.06   150.52   
 146.72   143.97   140.48   137.60   132.42   128.57   124.72   121.77   115.92   107.71   
 103.75   85.69    55.21    57.79    61.13    65.57    71.10    76.91    82.34    87.29    
 91.46    94.90    97.34    99.09    100.46   102.05   104.82   109.78   117.39   128.20   
 148.37   
315853.75 312293.62 306170.63 298002.08 287890.49 274422.24 252413.43 230404.59 208347.88 181667.70 
 157432.85 138114.11 122513.33 110251.26 99401.12 90984.31 83891.49 77505.48 71889.53 66414.97 
 60915.50 54452.03 47272.84 39949.26 32873.94 29116.70 25359.46 21631.67 20316.28 19429.25 
 18730.93 18128.02 17557.76 17030.80 16490.14 15874.50 15204.93 14459.23 13732.60 13021.91 
 12333.60 11637.12 11018.73 10468.46 9969.35  9476.37  8993.12  8552.85  8145.18  7775.49  
 7424.96  7097.31  6801.55  6550.53  6330.76  6124.98  5948.61  5776.66  5604.71  5432.42  
 5265.77  5066.14  4830.05  4600.54  4351.65  4104.01  3848.62  3583.76  3335.03  3090.49  
 2860.65  2651.11  2441.79  2249.45  2068.55  1889.36  1716.27  1568.91  1433.85  1310.80  
 1196.76  1091.38  1002.05  919.61   845.27   780.08   722.84   671.95   626.67   586.86   
 556.97   531.44   508.03   484.70   461.23   440.38   422.23   405.12   390.99   378.49   
 367.70   358.21   349.77   342.03   334.72   327.60   321.08   314.56   308.30   301.97   
 295.85   290.25   285.05   279.97   275.20   270.44   265.80   261.16   256.43   251.88   
 247.33   242.05   236.78   231.50   226.91   222.66   218.56   214.64   211.17   207.02   
 203.22   199.37   195.73   192.21   187.94   184.60   180.79   177.33   174.00   170.42   
 166.94   162.64   157.92   152.18   146.74   140.11   134.81   131.10   128.98   127.25   
 125.09   125.44   119.18   114.64   110.61   106.00   100.60   95.73    93.74    81.64    
 53.51    53.71    56.99    60.82    65.93    71.87    77.74    83.41    88.61    93.32    
 97.42    100.91   103.60   105.69   107.92   110.48   113.97   118.90   125.39   133.24   
 148.37   
315853.75 312813.94 307670.69 300750.65 292856.64 283619.97 271274.57 256982.01 239995.17 220746.16 
 199598.71 178194.82 157668.34 140468.24 125934.93 115190.97 104475.75 93760.53 85215.78 77689.68 
 70655.98 64113.80 58175.00 52361.24 46584.45 40891.88 35247.95 29986.59 25096.65 21096.04 
 18241.32 16295.43 14960.70 13982.79 13207.67 12546.12 11989.39 11537.11 11085.63 10687.35 
 10266.15 9904.17  9531.44  9164.27  8818.20  8486.49  8182.43  7896.84  7614.64  7361.23  
 7112.78  6862.06  6615.78  6386.93  6182.12  5994.93  5806.69  5608.31  5399.31  5182.93  
 4953.94  4730.72  4501.28  4281.89  4063.82  3846.96  3625.26  3408.38  3204.09  2993.83  
 2790.41  2593.13  2379.85  2188.11  2012.36  1844.45  1690.77  1544.51  1402.77  1266.73  
 1161.11  1055.73  950.35   865.83   796.66   734.60   677.70   628.26   585.16   548.43   
 516.39   491.49   468.78   446.23   423.76   402.92   384.00   368.10   354.66   341.43   
 329.24   318.50   308.38   299.49   290.61   282.12   274.23   267.18   261.06   254.65   
 248.40   243.42   238.50   232.96   228.12   223.98   220.11   216.25   212.30   208.38   
 204.78   201.08   197.61   194.05   190.57   187.49   184.72   181.34   177.96   174.93   
 171.85   169.16   165.96   162.14   158.49   155.41   152.02   148.42   144.55   140.73   
 137.04   132.22   126.94   121.65   116.33   110.90   105.97   100.39   95.08    90.49    
 83.87    78.11    71.03    67.06    65.60    43.01    37.74    39.57    43.88    48.51    
 52.31    57.36    62.62    67.90    73.02    78.07    82.84    87.43    91.75    95.69    
 99.07    102.29   105.56   108.91   112.61   117.04   122.29   128.48   135.18   142.37   
 148.37   
315853.75 314904.06 312023.82 307776.29 302566.95 296957.04 291183.71 285069.33 277204.90 267459.54 
 251781.58 236103.60 220373.42 200031.55 180489.94 162584.38 146220.17 131143.01 117087.68 104170.03 
 91652.49 79937.36 69774.74 61532.62 54940.82 49734.24 45399.46 41662.44 38267.34 34827.92 
 31659.01 28412.31 25422.43 22434.73 19648.48 17067.18 14741.46 12749.06 11239.06 10112.65 
 9313.68  8744.27  8334.09  8017.82  7746.04  7512.22  7310.41  7115.83  6918.53  6729.20  
 6565.47  6414.38  6273.21  6118.81  5971.17  5813.35  5649.61  5462.33  5265.59  5055.00  
 4835.07  4610.59  4377.57  4139.46  3913.40  3701.75  3495.02  3294.75  3093.32  2897.30  
 2714.21  2531.19  2354.47  2176.89  2003.87  1843.76  1693.68  1548.56  1415.79  1289.96  
 1172.66  1064.11  966.67   875.31   793.50   722.03   666.65   619.88   577.52   540.96   
 509.16   478.90   456.90   434.90   413.57   393.14   374.89   357.36   341.78   326.75   
 312.68   299.76   288.18   276.49   265.81   255.79   246.82   237.86   228.91   221.59   
 214.75   208.57   202.82   197.31   191.57   186.54   181.86   177.52   173.46   169.23   
 165.16   160.64   156.74   153.13   148.93   144.96   140.86   137.00   132.90   128.61   
 124.28   120.18   115.55   111.17   106.98   102.73   98.73    93.66    89.08    84.30    
 79.49    73.80    67.45    60.71    53.88    47.81    42.09    23.75    16.93    16.36    
 18.46    21.21    24.29    27.72    31.42    35.37    39.61    44.06    48.73    53.44    
 58.18    62.85    67.38    71.83    76.07    80.20    84.22    88.16    91.98    95.78    
 99.55    103.41   107.54   111.98   116.78   122.36   128.64   135.54   142.85   150.58   
 148.37   
315853.75 316593.14 315678.16 313668.83 310849.91 307713.03 304165.70 300214.62 295739.95 289940.66 
 281529.23 271654.32 259245.66 245334.77 229169.53 211825.16 193879.91 175801.55 157202.29 138078.27 
 117229.83 98951.65 80696.55 67163.60 57810.35 51211.56 46219.10 42154.52 38804.42 35712.99 
 32787.79 30079.91 27429.98 24884.50 22395.90 20043.76 17736.75 15630.18 13734.45 12178.49 
 10964.77 9754.36  8878.45  8187.55  7670.52  7246.22  6904.59  6619.61  6384.16  6185.61  
 5996.78  5810.34  5633.24  5459.06  5288.56  5108.76  4903.35  4692.86  4467.32  4231.51  
 3981.02  3748.51  3528.04  3321.87  3132.84  2950.45  2770.55  2604.05  2440.91  2285.90  
 2136.24  1995.54  1856.10  1720.34  1593.52  1472.05  1364.41  1258.92  1165.65  1072.49  
 979.32   895.01   815.48   742.57   677.79   617.49   562.43   516.57   475.85   439.68   
 409.48   380.99   354.69   336.45   316.61   298.65   281.13   266.18   254.14   242.08   
 228.01   216.46   204.88   194.40   185.32   172.85   164.00   156.85   149.46   141.24   
 134.58   128.13   121.69   115.25   110.30   104.04   98.88    93.54    88.26    83.11    
 77.86    73.06    67.67    62.16    56.81    52.02    46.93    41.67    36.25    30.73    
 24.99    19.64    15.31    10.24    7.19     5.94     5.78     6.24     6.80     7.51     
 8.32     9.26     10.32    11.51    12.89    14.44    16.18    18.04    20.19    22.57    
 25.14    27.85    30.81    34.03    37.43    40.93    44.62    48.49    52.43    56.50    
 60.57    64.73    68.84    72.95    76.98    81.03    85.14    89.33    93.60    97.99    
 102.47   107.25   112.29   117.55   123.46   130.09   136.92   144.47   152.28   160.73   
 148.37   
315853.75 318553.29 319910.09 320041.37 318987.51 317066.84 314235.56 309832.97 302992.47 293664.54 
 282746.25 271107.02 258093.19 244790.73 230430.50 214027.14 195308.49 174995.22 153024.16 130291.53 
 112155.67 94075.01 75994.35 63632.73 53661.20 45858.16 39850.69 34801.04 31017.25 27682.03 
 24854.99 22361.60 20117.79 18087.50 16110.36 14200.12 12392.10 10963.67 9539.23  8114.79  
 7126.61  6361.22  5797.67  5344.84  4981.46  4671.70  4381.13  4141.01  3977.03  3855.41  
 3720.34  3567.78  3368.78  3144.31  2906.49  2658.64  2434.39  2242.46  2065.12  1894.27  
 1737.74  1588.50  1443.66  1312.31  1188.24  1083.47  978.93   877.53   789.20   702.76   
 626.09   553.49   489.13   429.60   377.15   330.23   286.96   248.66   215.36   186.46   
 160.51   137.35   118.38   99.45    84.76    71.80    61.39    51.61    24.87    9.98     
 5.63     3.47     3.01     2.83     2.84     2.84     2.90     2.97     3.04     3.13     
 3.22     3.34     3.45     3.58     3.71     3.87     4.04     4.21     4.39     4.59     
 4.79     5.01     5.24     5.48     5.73     6.00     6.26     6.52     6.82     7.12     
 7.43     7.75     8.08     8.44     8.84     9.28     9.73     10.22    10.82    11.50    
 12.25    13.08    13.99    15.00    16.10    17.38    18.90    20.59    22.55    24.72    
 27.31    30.31    33.63    37.55    41.91    47.09    52.92    59.34    66.23    73.58    
 81.26    89.19    97.45    106.38   115.39   124.21   132.92   141.33   149.95   158.47   
 166.59   174.25   181.33   188.32   194.78   200.53   205.49   210.00   213.72   216.52   
 218.45   219.50   219.50   218.48   216.70   213.84   209.69   204.95   199.10   192.37   
 148.37   
315853.75 318929.65 320738.24 321200.70 320281.43 318374.45 315668.19 311365.05 304112.95 292822.98 
 279983.32 264822.64 244313.51 223753.07 197319.65 170559.55 145798.15 124439.96 107847.04 92741.37 
 75735.29 58913.21 45532.70 36129.87 29601.44 24446.81 19302.40 15284.75 12787.31 11033.37 
 9467.88  8171.50  6719.23  5128.55  4275.03  3603.73  2996.26  2388.80  1784.23  1488.34  
 1233.63  937.26   764.79   637.96   545.83   459.83   381.96   312.53   259.42   206.50   
 174.56   146.07   125.37   110.45   96.93    83.01    72.04    64.03    56.72    51.41    
 46.92    42.73    39.02    35.92    33.58    31.68    29.94    28.32    26.28    24.48    
 23.18    22.49    22.30    22.36    22.53    22.88    23.19    23.12    23.15    23.10    
 22.84    22.21    21.01    19.12    15.74    10.74    6.13     2.33     2.15     2.21     
 2.29     2.36     2.45     2.55     2.66     2.79     2.92     3.06     3.21     3.37     
 3.53     3.72     3.91     4.11     4.33     4.56     4.79     5.04     5.31     5.57     
 5.84     6.14     6.44     6.74     7.04     7.37     7.71     8.06     8.40     8.77     
 9.16     9.57     10.03    10.51    11.01    11.53    12.11    12.75    13.47    14.21    
 15.05    16.03    17.10    18.24    19.48    20.91    22.53    24.33    26.35    28.65    
 31.40    34.51    38.10    42.17    46.79    52.01    57.73    63.95    70.87    78.32    
 86.13    94.24    102.44   111.18   119.77   128.55   137.20   145.57   154.03   162.19   
 170.10   177.68   184.91   191.78   198.07   203.85   209.16   213.87   217.73   220.85   
 223.09   224.30   224.32   223.01   220.59   216.94   211.98   205.90   198.77   190.78   
 148.37   
315853.75 318837.69 320083.06 319156.25 316287.38 311804.70 305808.78 284315.75 258251.78 229866.36 
 204152.87 174362.77 146443.34 122146.60 92642.60 76327.41 60150.28 49533.63 33106.16 26383.03 
 21123.65 12530.93 9568.56  6671.30  2301.66  1629.25  1339.04  1078.57  818.37   558.17   
 407.49   302.00   242.34   208.52   184.33   162.94   141.87   124.53   111.59   98.71    
 87.74    78.50    69.85    62.05    55.96    51.20    46.54    43.01    39.59    36.14    
 33.10    29.87    26.44    22.80    19.49    16.96    15.17    13.69    12.59    11.78    
 11.25    10.86    10.49    10.15    9.73     9.39     9.11     8.92     8.72     8.52     
 8.34     8.15     8.02     7.88     7.58     7.33     7.10     6.76     6.32     5.75     
 5.21     4.65     4.00     3.40     2.83     2.59     2.55     2.57     2.64     2.73     
 2.83     2.95     3.06     3.20     3.37     3.54     3.72     3.91     4.11     4.33     
 4.54     4.77     5.01     5.27     5.52     5.80     6.07     6.36     6.65     6.96     
 7.26     7.58     7.91     8.24     8.59     8.94     9.30     9.66     10.04    10.44    
 10.85    11.27    11.73    12.21    12.70    13.26    13.88    14.57    15.34    16.16    
 17.08    18.07    19.18    20.44    21.82    23.35    25.03    26.99    29.16    31.64    
 34.45    37.68    41.32    45.58    50.39    55.78    61.76    68.22    75.29    83.24    
 91.70    100.54   109.68   118.92   128.26   138.06   147.99   157.56   166.65   175.50   
 184.14   192.08   199.31   206.00   211.98   217.27   221.84   225.81   229.03   231.39   
 232.72   233.21   232.65   230.49   226.84   222.02   215.93   208.26   199.39   189.37   
 148.37   
315853.75 318771.36 319496.09 316889.35 311086.85 291323.49 258643.12 225962.78 193298.80 162746.84 
 123580.55 93094.32 76758.86 50634.92 37633.94 27201.48 16820.47 11861.89 6903.32  1980.69  
 1887.50  1522.18  1189.26  974.70   763.13   581.12   418.04   336.79   266.79   196.98   
 146.71   117.38   99.26    85.68    75.34    66.87    60.97    55.81    50.32    45.63    
 41.98    38.29    34.30    30.63    26.49    23.04    20.13    17.99    16.23    14.91    
 13.80    12.88    12.07    11.31    10.52    9.64     8.95     8.34     7.88     7.52     
 7.18     6.73     6.37     6.06     5.77     5.53     5.31     5.09     4.78     4.60     
 4.45     4.31     4.16     3.99     3.79     3.59     3.42     3.26     3.13     2.99     
 2.87     2.74     2.65     2.65     2.68     2.72     2.79     2.88     2.96     3.06     
 3.15     3.27     3.38     3.50     3.64     3.79     3.96     4.14     4.33     4.53     
 4.73     4.95     5.17     5.42     5.66     5.91     6.17     6.46     6.74     7.04     
 7.35     7.67     8.01     8.35     8.69     9.05     9.43     9.80     10.18    10.56    
 10.97    11.41    11.86    12.36    12.85    13.39    13.95    14.61    15.33    16.13    
 17.04    18.07    19.21    20.51    21.91    23.53    25.35    27.33    29.53    31.96    
 34.79    37.93    41.46    45.47    50.02    55.22    61.01    67.47    74.60    82.57    
 91.16    100.41   110.11   121.24   132.38   143.68   155.27   166.65   178.24   189.14   
 199.35   208.77   217.42   224.89   231.16   236.33   240.43   243.71   245.65   246.16   
 245.58   243.93   241.44   236.17   230.89   224.67   216.71   207.51   196.97   185.33   
 148.37   
315853.75 318182.01 317342.91 312306.62 294340.87 252622.20 211883.47 173865.32 129096.72 100067.67 
 71227.22 44204.84 31747.29 18318.36 12586.66 6937.23  1287.81  1048.53  878.14   707.75   
 643.45   538.11   441.77   368.05   308.81   261.03   232.47   176.51   138.91   114.99   
 91.24    76.76    66.50    58.78    52.23    47.20    43.69    39.92    35.33    30.16    
 26.05    24.11    22.60    20.30    18.31    16.49    15.20    14.07    12.76    11.86    
 11.24    10.12    9.05     8.31     7.24     6.53     6.29     6.20     6.09     5.88     
 5.59     5.36     5.15     4.86     4.57     4.33     4.12     3.95     3.76     3.57     
 3.38     3.22     3.08     2.98     2.90     2.82     2.76     2.71     2.66     2.60     
 2.58     2.57     2.57     2.59     2.65     2.72     2.79     2.87     2.97     3.08     
 3.19     3.31     3.43     3.57     3.71     3.87     4.04     4.22     4.42     4.63     
 4.85     5.09     5.35     5.59     5.85     6.14     6.44     6.74     7.05     7.38     
 7.71     8.06     8.42     8.79     9.18     9.56     9.96     10.37    10.79    11.23    
 11.65    12.10    12.57    13.05    13.53    14.02    14.53    15.09    15.69    16.35    
 17.09    17.91    18.89    19.99    21.33    22.84    24.55    26.50    28.66    31.11    
 33.83    37.07    40.57    44.54    49.02    53.97    59.52    65.97    73.28    81.39    
 90.22    99.78    110.37   121.63   133.51   145.95   158.93   172.31   185.83   199.09   
 211.61   223.21   233.57   243.92   250.97   256.31   259.89   261.72   261.96   260.89   
 258.31   254.00   248.43   241.49   233.58   224.38   213.75   202.63   190.13   176.17   
 148.37   
315853.75 317978.38 316979.95 310991.76 285747.99 240183.99 194641.62 151228.71 100090.43 73696.55 
 43761.08 29784.70 15892.84 11950.33 8007.83  4065.32  159.39   109.12   76.95    62.30    
 53.40    45.34    38.90    34.06    30.19    26.63    23.76    21.63    20.23    18.97    
 18.50    17.97    17.50    16.85    15.67    13.50    11.48    10.23    9.29     8.35     
 7.58     7.05     6.77     7.53     8.01     8.02     7.97     7.74     7.47     7.09     
 6.70     6.48     6.25     5.96     5.74     5.46     5.27     5.11     4.94     4.76     
 4.58     4.44     4.19     4.06     3.96     3.81     3.67     3.56     3.47     3.35     
 3.22     3.15     3.07     2.98     2.89     2.85     2.82     2.79     2.78     2.79     
 2.80     2.81     2.84     2.86     2.91     2.97     3.02     3.09     3.15     3.23     
 3.32     3.40     3.48     3.56     3.67     3.81     3.96     4.14     4.33     4.55     
 4.79     5.05     5.32     5.60     5.92     6.24     6.58     6.92     7.25     7.59     
 7.94     8.29     8.63     8.96     9.32     9.70     10.10    10.54    10.97    11.42    
 11.92    12.42    12.94    13.48    14.00    14.56    15.15    15.77    16.42    17.08    
 17.78    18.54    19.35    20.21    21.21    22.35    23.75    25.39    27.25    29.47    
 32.02    34.89    38.09    41.72    45.83    50.56    55.91    61.77    68.61    76.63    
 85.70    95.95    106.91   120.13   133.35   147.39   162.12   176.85   192.40   207.43   
 222.45   236.56   249.14   260.20   268.82   275.13   279.02   280.48   279.72   276.93   
 272.31   266.43   258.90   249.24   238.50   226.81   214.03   200.37   185.86   170.33   
 148.37   
315853.75 317128.18 315247.70 308439.94 278449.32 230582.52 186739.21 139167.44 106048.08 73105.19 
 40162.29 22418.04 13281.44 10040.92 6863.77  3686.61  509.46   326.88   147.50   96.08    
 46.23    34.10    26.90    21.72    18.13    15.65    13.57    12.00    10.82    9.84     
 9.18     9.34     9.64     9.67     9.18     8.47     8.01     7.12     6.32     5.64     
 5.37     5.26     4.94     4.80     4.56     4.41     4.41     4.50     4.27     3.92     
 3.79     3.68     3.65     3.67     3.74     3.87     3.81     3.71     3.63     3.62     
 3.62     3.62     3.65     3.66     3.63     3.63     3.61     3.59     3.56     3.55     
 3.55     3.55     3.55     3.53     3.52     3.51     3.51     3.52     3.51     3.50     
 3.49     3.49     3.50     3.53     3.74     3.98     4.11     4.23     4.27     4.32     
 4.37     4.44     4.52     4.53     4.53     4.56     4.65     4.77     4.93     5.12     
 5.36     5.60     5.89     6.21     6.55     6.93     7.31     7.67     8.01     8.35     
 8.68     9.01     9.33     9.64     9.96     10.32    10.72    11.16    11.61    12.10    
 12.60    13.14    13.69    14.29    14.91    15.55    16.24    16.98    17.73    18.52    
 19.35    20.19    21.06    21.95    22.91    23.95    25.21    26.75    28.58    30.72    
 33.16    35.94    39.11    42.75    46.89    51.56    56.86    62.94    69.66    77.84    
 87.57    98.64    110.97   124.29   138.31   152.94   169.02   185.26   201.22   216.59   
 232.30   248.01   260.92   271.78   280.25   285.68   288.32   288.05   285.08   279.80   
 272.64   263.92   253.97   243.13   231.49   219.32   207.01   194.18   180.10   164.68   
 148.37   
