IESNA:LM-63-2002
[TEST] 1
[TESTLAB] AOK
[TESTDATE] 2022-05-27
[ISSUEDATE] 2022-05-27 14:16:35
[NEARFIELD] 
[LAMPPOSITION] 0,0
[OTHER] EVERFINE GO-2000A_V1 SYSTEM
[MANUFAC] AOK
[LUMCAT] A
[LUMINAIRE] AOK-600WiSF-NV-S5-00-5070-15D-P
[LAMPCAT] B
[LAMP] 5050
[BALLAST] E
[BALLASTCAT] F
[OTHER] 
[OTHER] Gamma(deg)    Fz(lm)      Ft(lm)     %Lum    %Lamp
[OTHER]   0- 10     34735.25    34735.25    45.55    45.55
[OTHER]  10- 20     20472.84    55208.09    72.40    72.40
[OTHER]  20- 30      7361.96    62570.05    82.06    82.06
[OTHER]  30- 40      3738.00    66308.05    86.96    86.96
[OTHER]  40- 50      3383.87    69691.92    91.40    91.40
[OTHER]  50- 60      3026.05    72717.98    95.37    95.37
[OTHER]  60- 70      2221.57    74939.55    98.28    98.28
[OTHER]  70- 80      1011.02    75950.56    99.61    99.61
[OTHER]  80- 90       132.98    76083.55    99.78    99.78
[OTHER]  90-100         2.44    76085.99    99.78    99.78
[OTHER] 100-110         3.98    76089.97    99.79    99.79
[OTHER] 110-120         5.99    76095.96    99.80    99.80
[OTHER] 120-130         7.77    76103.73    99.81    99.81
[OTHER] 130-140         9.62    76113.35    99.82    99.82
[OTHER] 140-150        17.40    76130.75    99.84    99.84
[OTHER] 150-160        44.61    76175.37    99.90    99.90
[OTHER] 160-170        54.69    76230.05    99.97    99.97
[OTHER] 170-180        20.14    76250.20   100.00   100.00
[OTHER] 
TILT=NONE
1 76250 1 181 25 1 2 0.150 0.200 0.000
1.000 1 567.641
0.0    1.0    2.0    3.0    4.0    5.0    6.0    7.0    8.0    9.0    
 10.0   11.0   12.0   13.0   14.0   15.0   16.0   17.0   18.0   19.0   
 20.0   21.0   22.0   23.0   24.0   25.0   26.0   27.0   28.0   29.0   
 30.0   31.0   32.0   33.0   34.0   35.0   36.0   37.0   38.0   39.0   
 40.0   41.0   42.0   43.0   44.0   45.0   46.0   47.0   48.0   49.0   
 50.0   51.0   52.0   53.0   54.0   55.0   56.0   57.0   58.0   59.0   
 60.0   61.0   62.0   63.0   64.0   65.0   66.0   67.0   68.0   69.0   
 70.0   71.0   72.0   73.0   74.0   75.0   76.0   77.0   78.0   79.0   
 80.0   81.0   82.0   83.0   84.0   85.0   86.0   87.0   88.0   89.0   
 90.0   91.0   92.0   93.0   94.0   95.0   96.0   97.0   98.0   99.0   
 100.0  101.0  102.0  103.0  104.0  105.0  106.0  107.0  108.0  109.0  
 110.0  111.0  112.0  113.0  114.0  115.0  116.0  117.0  118.0  119.0  
 120.0  121.0  122.0  123.0  124.0  125.0  126.0  127.0  128.0  129.0  
 130.0  131.0  132.0  133.0  134.0  135.0  136.0  137.0  138.0  139.0  
 140.0  141.0  142.0  143.0  144.0  145.0  146.0  147.0  148.0  149.0  
 150.0  151.0  152.0  153.0  154.0  155.0  156.0  157.0  158.0  159.0  
 160.0  161.0  162.0  163.0  164.0  165.0  166.0  167.0  168.0  169.0  
 170.0  171.0  172.0  173.0  174.0  175.0  176.0  177.0  178.0  179.0  
 180.0  
0.0    15.0   30.0   45.0   60.0   75.0   90.0   105.0  120.0  135.0  
 150.0  165.0  180.0  195.0  210.0  225.0  240.0  255.0  270.0  285.0  
 300.0  315.0  330.0  345.0  360.0  
530658.81 529464.99 524117.48 513350.46 493592.25 457943.15 400659.93 329178.29 259694.05 201643.28 
 157941.45 126765.95 109244.64 91874.27 74503.90 63671.67 54796.50 47173.69 40985.69 35706.48 
 31124.42 26968.74 23200.70 19800.17 16810.33 14326.45 12341.67 10880.98 9425.60  8355.05  
 7542.33  6860.25  6315.26  5965.07  5754.74  5610.00  5487.17  5326.54  5128.41  4916.56  
 4723.73  4558.72  4418.83  4307.23  4205.96  4100.81  3986.81  3871.11  3757.00  3633.29  
 3515.81  3409.66  3324.43  3246.26  3161.78  3058.42  2960.84  2876.93  2803.59  2730.75  
 2652.32  2557.66  2442.21  2291.33  2135.61  1973.44  1825.59  1689.51  1559.16  1436.09  
 1314.29  1187.70  1061.44  935.20   824.01   723.65   621.31   522.60   429.62   350.70   
 273.41   211.43   154.40   122.40   90.66    58.92    39.43    22.02    6.92     3.32     
 2.80     2.79     2.62     2.71     2.85     3.02     3.20     3.39     3.59     3.79     
 4.01     4.25     4.48     4.73     4.99     5.27     5.53     5.80     6.08     6.36     
 6.66     6.96     7.26     7.57     7.90     8.22     8.55     8.88     9.23     9.57     
 9.93     10.28    10.65    11.02    11.38    11.74    12.12    12.50    12.87    13.23    
 13.59    13.95    14.32    14.72    15.16    15.65    16.21    16.92    17.77    18.81    
 20.03    21.61    23.53    25.95    28.97    32.80    37.69    43.85    51.76    61.72    
 73.72    87.51    102.86   119.57   138.11   157.35   176.74   196.08   215.78   235.80   
 255.82   272.97   288.63   303.06   314.73   323.56   330.21   333.86   334.89   333.35   
 328.90   321.82   312.74   301.94   289.93   277.27   263.99   250.27   235.82   220.28   
 204.46   
530658.81 529544.35 524263.80 513790.67 494135.91 458043.23 400605.31 330413.10 267100.35 203942.75 
 160899.00 129912.72 106802.85 89547.38 76110.72 65582.81 56735.57 49451.06 43402.58 38351.81 
 33750.61 29609.01 25950.94 22297.61 19211.63 16580.64 14338.18 12459.14 10917.80 9625.23  
 8512.05  7504.86  6725.83  6248.05  5963.95  5742.18  5531.14  5307.56  5074.03  4848.94  
 4667.95  4525.58  4404.65  4300.30  4210.14  4135.15  4048.49  3959.95  3885.86  3811.22  
 3721.34  3631.02  3537.14  3447.48  3355.16  3260.44  3168.13  3075.62  2959.65  2822.84  
 2690.05  2557.25  2424.55  2302.25  2167.53  2049.16  1928.16  1806.54  1690.18  1576.27  
 1455.30  1323.28  1188.20  1043.56  911.18   783.45   670.65   564.34   464.50   378.84   
 306.64   234.45   162.51   118.31   86.19    60.05    39.77    22.42    7.95     3.46     
 3.00     3.11     2.84     2.83     2.83     2.94     3.10     3.28     3.47     3.67     
 3.90     4.14     4.38     4.62     4.88     5.14     5.41     5.67     5.94     6.21     
 6.51     6.81     7.11     7.40     7.71     8.02     8.35     8.69     9.03     9.37     
 9.69     10.05    10.41    10.78    11.13    11.49    11.86    12.23    12.60    12.97    
 13.34    13.71    14.11    14.53    15.06    15.64    16.32    17.14    18.08    19.23    
 20.59    22.19    24.14    26.53    29.50    33.27    38.02    44.08    51.70    61.39    
 72.99    86.67    101.47   119.15   136.84   155.51   175.12   194.47   214.04   233.52   
 252.08   269.68   285.61   299.71   311.28   320.30   326.56   330.15   331.00   329.15   
 324.60   317.69   308.92   298.45   287.15   274.58   260.89   246.93   231.81   216.89   
 204.46   
530658.81 528702.57 522391.69 510415.61 487654.94 447712.16 387192.50 316619.54 250349.46 198358.48 
 159382.53 130202.78 112302.60 94527.19 76751.78 66211.96 57902.03 51260.40 45938.07 41299.04 
 37003.77 32799.41 28979.25 25420.30 22255.51 19549.62 17228.21 15236.55 13459.80 11926.48 
 10567.74 9211.12  8023.13  7112.23  6431.21  5915.80  5515.19  5216.02  4996.67  4838.33  
 4720.77  4631.72  4537.41  4437.02  4346.58  4268.67  4201.72  4136.89  4057.65  3967.83  
 3866.56  3764.09  3670.42  3561.24  3435.47  3311.10  3189.15  3072.44  2967.40  2867.30  
 2768.45  2671.89  2566.29  2450.17  2318.71  2180.66  2028.53  1887.44  1739.27  1589.02  
 1445.56  1314.19  1186.91  1053.19  919.38   798.08   687.49   582.41   482.06   386.76   
 305.97   230.77   167.76   130.66   93.84    57.01    36.16    19.41    6.70     3.49     
 3.39     3.24     3.14     3.08     3.10     3.23     3.38     3.55     3.76     3.99     
 4.22     4.47     4.72     4.98     5.23     5.50     5.76     6.04     6.33     6.62     
 6.91     7.20     7.50     7.81     8.12     8.43     8.75     9.08     9.41     9.74     
 10.08    10.42    10.78    11.14    11.48    11.84    12.21    12.59    12.97    13.36    
 13.76    14.21    14.71    15.24    15.87    16.60    17.48    18.48    19.61    20.94    
 22.45    24.19    26.36    28.96    32.15    36.20    41.39    47.77    55.74    65.77    
 77.54    90.88    105.55   121.83   139.82   158.43   177.27   196.05   215.82   235.40   
 254.98   271.50   287.16   300.41   310.99   319.05   324.14   326.36   325.60   322.15   
 316.33   308.54   299.27   289.92   278.78   266.54   253.21   239.52   225.18   211.00   
 204.46   
530658.81 528584.97 522418.34 510605.43 487889.69 447370.51 388548.24 321256.76 262301.00 203493.72 
 163922.55 134974.55 111836.45 92976.43 78136.92 66870.29 58301.11 51561.83 46184.30 41656.82 
 37534.52 33556.41 29766.35 26672.16 23577.99 20489.82 18078.21 15984.88 14190.01 12554.89 
 11049.09 9612.23  8316.88  7280.76  6495.41  5910.14  5517.64  5261.82  5069.65  4901.80  
 4760.68  4643.65  4542.50  4456.74  4384.22  4309.57  4220.50  4137.05  4052.34  3960.75  
 3864.27  3759.39  3657.44  3567.84  3488.03  3406.91  3311.55  3194.84  3071.23  2940.42  
 2811.66  2687.99  2564.31  2440.60  2312.98  2194.11  2076.14  1952.44  1820.46  1686.19  
 1541.59  1398.21  1270.15  1143.23  1014.52  884.06   761.51   643.09   533.65   436.65   
 348.63   279.40   210.17   141.15   95.48    63.16    40.95    23.50    9.63     3.46     
 3.22     3.10     2.97     2.93     2.98     3.08     3.24     3.46     3.68     3.91     
 4.14     4.39     4.63     4.90     5.17     5.44     5.69     5.97     6.26     6.55     
 6.84     7.13     7.44     7.76     8.08     8.40     8.74     9.07     9.40     9.73     
 10.09    10.45    10.82    11.17    11.53    11.89    12.28    12.67    13.08    13.52    
 13.99    14.50    15.05    15.66    16.33    17.10    18.01    19.09    20.24    21.61    
 23.28    25.13    27.38    30.11    33.50    37.78    43.04    49.65    57.61    67.31    
 78.60    91.57    105.67   122.50   139.34   157.36   176.29   195.13   214.53   233.54   
 251.58   268.49   283.51   296.44   306.70   314.07   318.37   319.61   318.15   314.25   
 308.58   301.98   293.77   284.12   273.56   261.86   249.21   236.24   222.34   209.16   
 204.46   
530658.81 527461.52 520264.56 506573.06 480896.77 438343.89 379627.05 312805.78 250944.70 200450.40 
 161715.08 132211.45 113283.79 94473.10 75662.42 63897.84 54917.65 47673.37 41769.37 36730.80 
 32385.90 28345.48 24656.27 21374.23 18496.02 16001.83 13915.18 12126.43 10716.01 9310.39  
 8267.82  7388.65  6695.22  6214.26  5891.58  5652.42  5470.69  5320.85  5195.33  5077.33  
 4961.02  4844.72  4739.24  4636.29  4531.77  4424.83  4324.67  4214.57  4107.16  4000.98  
 3908.71  3820.73  3732.81  3641.28  3546.50  3448.48  3349.62  3250.75  3139.06  3021.21  
 2894.07  2758.79  2625.05  2499.74  2383.34  2264.25  2141.52  2013.94  1887.50  1750.66  
 1604.89  1456.21  1316.70  1183.72  1057.80  931.96   796.10   676.34   569.01   469.07   
 376.12   286.56   214.70   154.72   117.08   79.73    42.37    23.72    10.54    3.64     
 3.15     3.05     2.99     3.01     3.16     3.36     3.57     3.80     4.04     4.28     
 4.53     4.78     5.04     5.31     5.58     5.85     6.13     6.42     6.71     7.00     
 7.30     7.61     7.93     8.25     8.57     8.90     9.23     9.56     9.92     10.27    
 10.61    10.97    11.33    11.68    12.04    12.41    12.79    13.18    13.58    13.99    
 14.44    14.94    15.46    16.08    16.79    17.61    18.55    19.64    20.95    22.48    
 24.23    26.29    28.74    31.85    35.75    40.62    46.52    53.52    61.86    71.68    
 83.55    96.99    111.69   127.42   143.85   161.08   180.03   199.23   217.65   235.74   
 253.82   269.42   282.76   293.61   302.62   308.67   311.93   312.88   312.41   309.26   
 303.92   297.08   289.03   280.03   270.01   259.16   247.48   235.31   222.62   209.80   
 204.46   
530658.81 527667.55 520743.20 508167.30 483957.16 443924.86 389319.46 326485.99 268171.47 209987.24 
 168687.50 136225.39 111113.86 91353.44 75719.71 63696.21 53810.56 45670.94 38873.88 33422.55 
 28783.39 24966.28 21154.50 17996.34 15264.57 12946.89 11014.16 9527.78  8445.06  7665.49  
 7083.77  6637.88  6291.06  6022.58  5802.62  5622.74  5479.67  5367.18  5263.46  5154.54  
 5045.78  4954.14  4866.97  4765.29  4657.53  4544.21  4437.70  4330.34  4217.39  4106.92  
 4004.56  3911.90  3826.44  3738.39  3648.45  3553.29  3457.28  3356.42  3251.86  3137.62  
 3018.17  2899.56  2784.17  2670.05  2555.93  2441.77  2321.49  2201.98  2075.30  1939.48  
 1796.98  1656.24  1514.16  1368.22  1220.09  1072.22  930.77   802.83   682.81   568.39   
 461.59   361.98   287.68   213.38   139.34   92.17    55.87    32.00    16.88    5.36     
 3.38     2.75     2.71     2.90     3.10     3.32     3.54     3.77     4.01     4.25     
 4.50     4.75     5.02     5.30     5.57     5.86     6.14     6.43     6.73     7.03     
 7.34     7.65     7.97     8.31     8.63     8.96     9.31     9.66     10.00    10.35    
 10.72    11.09    11.46    11.82    12.17    12.53    12.89    13.26    13.63    14.00    
 14.40    14.85    15.37    15.91    16.52    17.22    18.08    19.12    20.30    21.75    
 23.54    25.70    28.31    31.50    35.43    40.35    46.28    53.45    61.92    71.95    
 83.43    96.30    110.07   126.60   143.13   160.58   178.76   196.63   214.59   231.71   
 247.70   262.42   275.31   286.62   295.80   302.96   307.96   310.91   311.76   309.87   
 306.50   301.25   294.35   286.10   276.55   266.63   254.63   241.80   228.16   214.76   
 204.46   
530658.81 527792.78 521095.17 509326.14 487360.20 450661.42 401083.43 342479.58 287353.36 232227.13 
 177314.13 142235.02 115162.30 94182.42 77941.24 65202.64 54750.37 46032.85 38890.46 33113.11 
 28477.46 24701.78 20932.55 17755.46 14949.54 12595.38 10736.85 9313.45  8292.44  7568.84  
 7052.63  6650.35  6335.94  6075.47  5863.87  5676.53  5520.45  5382.10  5261.45  5156.47  
 5063.59  4982.96  4873.39  4762.42  4670.20  4579.46  4479.06  4368.76  4264.03  4159.38  
 4060.34  3965.44  3882.94  3806.22  3728.86  3649.83  3562.32  3465.15  3359.52  3245.15  
 3132.80  3022.81  2910.12  2804.05  2687.42  2570.78  2454.01  2324.12  2196.75  2065.53  
 1926.71  1783.29  1631.40  1481.60  1334.00  1190.69  1048.15  905.92   772.83   647.58   
 532.62   422.22   323.59   245.78   168.21   110.48   66.24    36.85    17.43    5.50     
 0.97     0.87     0.88     0.94     0.99     1.06     1.13     1.21     1.30     1.39     
 1.49     1.60     1.73     1.86     1.99     2.14     2.29     2.46     2.63     2.80     
 2.98     3.15     3.34     3.53     3.72     3.91     4.10     4.29     4.47     4.67     
 4.86     5.04     5.23     5.40     5.58     5.76     5.93     6.11     6.28     6.47     
 6.66     6.86     7.07     7.30     7.55     7.82     8.14     8.51     8.92     9.42     
 10.01    10.69    11.48    12.43    13.59    14.93    16.45    18.23    20.22    22.43    
 24.98    27.69    30.71    34.00    37.51    41.26    45.25    49.41    53.88    58.32    
 62.89    67.54    72.20    76.94    81.65    86.44    91.19    96.20    101.83   106.73   
 111.57   116.66   122.16   128.17   135.00   143.04   152.34   162.88   174.81   187.75   
 204.46   
530658.81 527265.12 520209.74 507951.55 486527.97 451420.58 403781.69 346322.33 286246.06 228867.68 
 181061.32 143915.21 115938.56 97689.02 79517.88 66627.45 56430.48 48135.36 41434.53 35706.37 
 30893.66 26637.20 22846.95 19356.50 16322.20 13769.06 11681.49 10253.13 8829.64  7920.29  
 7275.95  6794.28  6413.19  6127.31  5901.42  5722.03  5579.02  5460.29  5346.87  5228.38  
 5117.03  5019.33  4927.35  4825.04  4721.43  4614.61  4504.97  4394.10  4280.83  4173.54  
 4069.37  3969.34  3877.34  3787.81  3686.72  3582.72  3485.89  3388.73  3282.36  3161.12  
 3037.36  2916.71  2802.15  2687.64  2569.15  2447.41  2329.65  2213.52  2086.60  1947.60  
 1802.50  1656.16  1501.82  1352.59  1203.01  1065.05  927.21   797.34   672.50   558.42   
 452.65   359.83   273.57   196.32   136.02   88.63    58.62    28.78    14.36    3.41     
 1.14     1.09     1.08     1.12     1.15     1.17     1.22     1.29     1.37     1.45     
 1.55     1.66     1.77     1.90     2.03     2.18     2.33     2.48     2.65     2.81     
 2.98     3.16     3.34     3.52     3.71     3.89     4.08     4.25     4.43     4.62     
 4.79     4.98     5.16     5.34     5.51     5.68     5.86     6.04     6.23     6.42     
 6.61     6.83     7.05     7.31     7.57     7.89     8.25     8.66     9.13     9.66     
 10.27    11.01    11.89    12.92    14.10    15.51    17.12    18.92    21.01    23.34    
 25.90    28.65    31.68    35.02    38.51    42.17    46.17    50.28    54.50    58.81    
 63.17    67.63    72.10    76.63    81.15    85.77    90.35    95.03    99.75    104.58   
 110.53   115.76   121.37   127.49   134.39   142.46   151.70   162.47   174.36   187.55   
 204.46   
530658.81 527439.60 521137.46 510265.01 492166.48 462006.56 420104.35 366879.00 307520.74 251460.89 
 195565.62 155017.65 123547.59 100586.13 83490.35 70614.84 60512.08 52479.05 45929.81 40516.34 
 35652.51 31295.80 27606.02 23916.23 20235.99 17392.50 14963.96 12905.64 11146.94 9711.90  
 8548.68  7609.24  6844.50  6296.20  5946.70  5718.55  5535.34  5375.89  5237.40  5118.07  
 5002.40  4891.80  4780.88  4668.37  4555.55  4451.98  4354.41  4258.72  4153.46  4047.43  
 3943.80  3841.37  3739.42  3642.87  3543.65  3443.24  3342.81  3241.16  3137.47  3029.29  
 2911.77  2780.30  2648.97  2517.81  2399.85  2284.78  2160.43  2035.88  1904.51  1773.59  
 1634.47  1490.66  1349.52  1219.55  1091.69  967.27   836.47   708.34   600.15   500.29   
 404.50   326.46   248.43   170.71   118.62   77.41    46.75    26.06    14.35    3.47     
 1.66     1.53     1.40     1.17     0.98     1.00     1.05     1.10     1.17     1.25     
 1.34     1.44     1.53     1.64     1.76     1.89     2.03     2.18     2.33     2.48     
 2.64     2.81     2.98     3.15     3.34     3.51     3.69     3.86     4.04     4.23     
 4.41     4.59     4.77     4.94     5.12     5.30     5.47     5.65     5.83     6.02     
 6.24     6.46     6.69     6.95     7.24     7.55     7.90     8.32     8.79     9.35     
 9.94     10.63    11.43    12.36    13.46    14.74    16.22    17.91    19.86    22.07    
 24.49    27.19    30.13    33.39    36.91    40.67    44.68    48.86    53.28    57.80    
 62.47    67.20    71.97    76.79    81.55    86.39    91.11    95.89    100.59   105.46   
 110.41   115.71   121.47   127.80   135.44   143.28   152.34   162.58   174.31   187.35   
 204.46   
530658.81 526983.85 520193.02 509659.64 492846.93 465970.53 425607.04 373188.73 312797.64 251859.03 
 196289.09 153886.64 121755.72 101197.02 80731.61 67872.81 58359.65 51116.51 45232.90 40131.61 
 35499.33 31313.42 27407.86 23654.77 20298.00 17450.25 15080.81 13103.88 11674.09 10249.74 
 8825.39  7822.59  6945.74  6308.94  5892.82  5611.12  5410.21  5246.41  5096.92  4947.92  
 4810.93  4686.06  4574.49  4480.26  4403.80  4323.08  4231.92  4129.85  4043.33  3953.72  
 3857.13  3754.23  3647.67  3547.88  3461.36  3376.15  3284.95  3176.49  3055.46  2923.92  
 2797.10  2675.86  2553.93  2428.39  2298.02  2179.21  2062.91  1943.82  1813.50  1677.08  
 1538.21  1396.11  1268.36  1142.05  1015.76  889.47   772.62   653.02   536.84   437.80   
 349.64   274.33   204.69   144.32   104.50   64.88    41.57    25.15    11.25    2.25     
 1.56     1.50     1.45     1.40     1.33     1.25     1.21     1.21     1.27     1.34     
 1.42     1.51     1.60     1.70     1.81     1.94     2.07     2.20     2.34     2.49     
 2.65     2.80     2.97     3.14     3.31     3.48     3.66     3.83     4.01     4.18     
 4.36     4.54     4.71     4.89     5.06     5.23     5.40     5.58     5.77     5.96     
 6.17     6.39     6.63     6.88     7.18     7.50     7.86     8.27     8.72     9.23     
 9.78     10.41    11.17    12.05    13.08    14.25    15.61    17.22    19.06    21.20    
 23.61    26.04    29.16    32.50    36.01    39.38    43.49    47.78    52.27    56.97    
 61.86    66.97    72.12    77.39    82.52    87.66    92.68    97.59    102.28   106.82   
 111.32   115.91   120.89   126.37   132.71   140.44   149.55   160.76   172.62   185.82   
 204.46   
530658.81 527514.65 521335.88 511792.59 497621.26 475348.37 441283.97 393352.78 332643.62 268977.78 
 205488.43 158462.72 122419.63 96210.19 77230.38 63797.60 53549.62 45553.27 39166.14 34003.94 
 29544.49 25744.69 21948.10 18447.73 15304.70 12817.19 10899.54 9501.17  8533.14  7901.48  
 7464.56  7078.71  6643.34  6251.23  5977.94  5754.61  5534.49  5315.31  5108.46  4931.14  
 4786.18  4676.77  4581.85  4486.44  4383.57  4292.46  4217.05  4152.01  4085.54  4000.09  
 3895.41  3785.57  3677.67  3565.15  3438.75  3314.79  3194.85  3076.18  2965.23  2864.73  
 2770.53  2668.30  2566.08  2463.65  2345.11  2216.68  2077.80  1924.77  1786.97  1650.16  
 1509.18  1372.06  1241.42  1114.03  988.22   855.30   743.55   628.61   525.26   431.86   
 343.17   267.70   192.47   137.39   95.60    66.48    44.12    27.44    12.08    2.01     
 1.19     1.13     1.08     1.08     1.08     1.08     1.08     1.08     1.10     1.17     
 1.24     1.32     1.41     1.50     1.60     1.71     1.83     1.96     2.09     2.23     
 2.38     2.53     2.69     2.84     3.01     3.18     3.35     3.52     3.68     3.85     
 4.02     4.19     4.35     4.52     4.68     4.85     5.02     5.20     5.38     5.56     
 5.76     5.97     6.21     6.45     6.72     7.02     7.36     7.73     8.15     8.61     
 9.17     9.75     10.43    11.22    12.12    13.24    14.51    15.97    17.73    19.76    
 22.10    24.72    27.71    31.01    34.56    38.37    42.44    46.68    50.98    56.12    
 61.19    66.41    71.39    76.95    82.51    88.11    93.67    99.11    104.28   109.25   
 113.93   118.48   123.01   127.91   133.52   140.32   148.81   159.08   170.75   183.76   
 204.46   
530658.81 527218.91 520540.04 511023.66 497564.06 477355.10 445067.49 396493.77 333886.59 265928.93 
 201602.61 151118.22 113694.81 91654.51 69738.26 55704.44 45258.66 37523.35 31663.15 26887.52 
 22837.19 19421.90 16372.00 13594.13 11993.80 10403.08 8812.36  8207.13  7770.91  7444.02  
 7160.62  6810.73  6400.12  6079.54  5882.02  5726.04  5556.76  5362.09  5148.95  4931.49  
 4734.81  4573.57  4443.91  4326.56  4224.14  4136.29  4055.38  3968.11  3886.80  3803.13  
 3708.07  3617.47  3522.50  3423.89  3322.84  3218.17  3119.07  3026.44  2911.80  2775.73  
 2637.48  2512.00  2396.68  2281.46  2159.83  2038.14  1923.27  1809.25  1694.45  1578.43  
 1462.80  1334.74  1206.53  1070.41  934.21   806.16   694.67   582.12   482.29   391.21   
 311.46   238.50   176.31   126.95   95.73    64.70    43.38    26.65    10.70    1.95     
 1.12     1.07     1.06     1.06     1.06     1.08     1.10     1.14     1.18     1.24     
 1.31     1.39     1.47     1.56     1.67     1.78     1.90     2.03     2.15     2.28     
 2.43     2.58     2.73     2.89     3.05     3.21     3.37     3.53     3.70     3.87     
 4.03     4.20     4.36     4.53     4.70     4.87     5.03     5.21     5.38     5.56     
 5.76     5.97     6.20     6.44     6.72     7.01     7.35     7.72     8.14     8.62     
 9.15     9.73     10.41    11.23    12.18    13.27    14.49    16.00    17.79    19.86    
 22.30    25.04    28.16    31.61    35.30    39.19    43.44    47.85    52.47    57.42    
 62.55    68.03    73.63    79.38    85.09    90.87    96.59    102.02   107.64   113.00   
 117.74   122.51   127.21   131.96   137.18   143.60   151.73   162.15   174.60   188.50   
 204.46   
530658.81 527829.26 522003.45 513173.27 500644.79 482477.20 454883.55 411683.74 351098.80 286570.14 
 222041.50 157776.98 117554.07 89060.98 68556.93 54054.00 43300.08 35349.20 29603.46 25534.18 
 21473.14 18203.80 15452.99 13046.06 11011.32 9617.92  8750.05  8187.96  7751.82  7415.53  
 7137.01  6807.67  6401.44  6034.04  5814.04  5675.91  5558.73  5420.43  5253.84  5062.36  
 4863.02  4674.48  4514.91  4380.04  4270.08  4169.27  4061.89  3940.92  3820.43  3706.63  
 3584.47  3464.90  3360.27  3268.33  3181.62  3083.63  2978.50  2879.48  2790.17  2710.49  
 2632.76  2554.73  2452.18  2327.67  2175.50  2023.64  1874.96  1734.51  1608.80  1488.13  
 1370.22  1249.25  1125.03  998.27   886.30   776.22   674.89   572.94   477.40   392.85   
 316.06   247.90   179.99   132.45   96.61    68.07    46.08    29.26    13.34    2.17     
 0.95     0.81     0.82     0.86     0.88     0.91     0.94     0.98     1.04     1.11     
 1.19     1.27     1.36     1.46     1.55     1.66     1.78     1.90     2.04     2.18     
 2.33     2.48     2.64     2.80     2.97     3.14     3.30     3.47     3.64     3.82     
 3.99     4.17     4.34     4.51     4.68     4.84     5.01     5.18     5.35     5.53     
 5.71     5.91     6.13     6.36     6.62     6.92     7.25     7.64     8.07     8.59     
 9.18     9.80     10.54    11.39    12.33    13.50    14.78    16.25    18.01    20.06    
 22.48    25.24    28.38    31.83    35.53    39.52    43.71    48.08    52.89    57.92    
 63.25    68.80    74.51    80.38    86.26    92.16    97.91    103.68   109.31   114.74   
 119.93   124.93   129.72   134.45   139.39   144.91   151.96   160.99   172.91   187.54   
 204.46   
530658.81 527774.13 521962.32 513033.95 500789.07 482301.00 453308.39 408536.59 349121.98 279828.66 
 212625.37 157764.85 118428.49 94648.37 70993.56 56403.42 45768.73 37945.46 32032.58 27312.96 
 23308.83 19877.20 16795.09 14024.87 11613.76 10292.79 8980.44  8345.14  7889.15  7552.78  
 7266.08  6940.53  6522.73  6174.74  5954.23  5796.63  5629.91  5431.77  5212.69  4992.05  
 4786.24  4615.05  4478.70  4359.92  4252.53  4156.89  4075.39  3982.37  3889.25  3799.75  
 3714.53  3622.29  3526.37  3420.39  3319.53  3222.33  3127.58  3038.06  2934.93  2813.21  
 2681.30  2554.09  2430.57  2310.69  2189.65  2058.97  1942.64  1830.46  1712.70  1596.89  
 1480.70  1360.48  1234.96  1100.28  965.52   835.92   719.38   607.27   506.70   411.93   
 329.19   251.82   185.96   133.56   100.56   67.74    45.42    28.70    13.20    2.63     
 1.16     1.00     1.00     1.00     1.02     1.05     1.09     1.14     1.20     1.28     
 1.36     1.43     1.52     1.62     1.73     1.85     1.97     2.10     2.23     2.37     
 2.53     2.68     2.83     3.01     3.18     3.35     3.51     3.68     3.85     4.02     
 4.19     4.37     4.54     4.71     4.89     5.06     5.23     5.42     5.59     5.79     
 5.99     6.22     6.46     6.72     7.02     7.36     7.74     8.18     8.66     9.21     
 9.80     10.51    11.31    12.22    13.27    14.45    15.78    17.32    19.13    21.21    
 23.63    26.33    29.42    32.84    36.57    40.53    44.84    49.48    54.29    59.44    
 64.81    70.45    76.23    82.15    87.99    93.95    99.77    105.57   111.16   116.58   
 121.81   126.89   131.74   136.47   141.36   146.89   153.42   161.88   172.69   185.90   
 204.46   
530658.81 528708.52 523989.81 515754.31 504201.40 486164.85 458010.11 416606.11 361221.25 298387.16 
 235553.05 172941.23 130590.79 100605.40 79811.62 65426.78 54656.75 46347.76 39792.54 34611.66 
 30133.54 26505.05 22876.57 19252.50 16027.83 13371.55 11313.78 9793.50  8732.51  8051.30  
 7601.08  7246.66  6853.82  6429.80  6124.51  5902.62  5687.36  5456.87  5225.51  5022.29  
 4860.97  4723.46  4608.97  4508.60  4416.23  4322.36  4237.49  4169.50  4106.24  4037.09  
 3943.28  3829.81  3712.45  3602.93  3488.17  3361.45  3240.78  3122.92  3006.40  2901.55  
 2801.98  2707.89  2604.64  2501.22  2383.82  2264.63  2131.91  1989.86  1838.84  1699.21  
 1556.50  1415.87  1283.12  1161.30  1030.84  908.89   781.97   670.43   564.26   468.01   
 375.65   302.48   229.32   156.45   108.16   74.23    48.90    30.78    16.95    5.20     
 1.20     0.90     0.88     0.90     0.93     0.95     0.99     1.04     1.11     1.19     
 1.27     1.35     1.45     1.54     1.65     1.77     1.89     2.02     2.16     2.30     
 2.45     2.61     2.78     2.95     3.13     3.30     3.48     3.65     3.83     4.00     
 4.18     4.36     4.54     4.71     4.88     5.06     5.24     5.43     5.60     5.80     
 6.01     6.24     6.48     6.74     7.04     7.37     7.74     8.16     8.63     9.18     
 9.75     10.41    11.14    11.97    12.90    14.02    15.29    16.72    18.41    20.37    
 22.65    25.26    28.16    31.46    35.07    39.03    43.39    48.02    53.02    58.27    
 63.80    69.43    75.10    81.06    86.95    92.94    98.77    104.74   110.42   116.07   
 121.48   126.99   132.31   137.61   142.94   148.33   154.71   162.43   171.85   183.45   
 204.46   
530658.81 528930.79 524156.82 516144.87 504298.05 484260.36 452190.26 407724.61 352603.57 289657.13 
 227393.32 173857.75 133483.00 112063.08 90796.23 69529.37 59176.56 51337.13 45160.16 39968.81 
 35352.76 31177.53 27287.42 23677.11 20306.92 17346.98 14901.78 12858.70 11454.94 10057.53 
 8660.12  7774.41  7014.66  6411.80  6003.09  5716.53  5494.46  5316.31  5177.47  5032.12  
 4886.31  4754.93  4639.35  4532.74  4442.67  4365.60  4285.83  4195.59  4098.43  4010.47  
 3909.18  3798.28  3696.93  3589.65  3493.95  3411.61  3330.99  3232.31  3114.59  2984.67  
 2852.23  2722.15  2605.36  2483.09  2355.55  2230.77  2114.44  2001.40  1877.95  1743.56  
 1611.10  1472.62  1339.28  1212.83  1087.01  961.19   836.67   719.34   604.50   498.72   
 405.03   318.80   242.32   176.79   121.52   86.06    50.79    29.83    16.89    6.43     
 1.48     1.15     1.12     1.12     1.12     1.12     1.15     1.20     1.27     1.36     
 1.44     1.53     1.64     1.74     1.86     1.99     2.12     2.25     2.39     2.54     
 2.70     2.87     3.04     3.21     3.40     3.57     3.75     3.93     4.12     4.31     
 4.49     4.68     4.87     5.06     5.25     5.42     5.60     5.79     5.99     6.20     
 6.41     6.64     6.89     7.15     7.44     7.76     8.10     8.50     8.93     9.41     
 9.95     10.53    11.23    12.04    12.99    14.08    15.32    16.78    18.52    20.50    
 22.80    25.36    28.24    31.53    35.12    39.05    43.43    48.19    53.28    58.69    
 64.28    70.14    76.00    82.01    87.77    93.47    99.02    104.41   109.65   114.83   
 120.43   126.39   132.13   137.63   142.82   148.33   155.23   163.53   172.70   183.30   
 204.46   
530658.81 529983.78 526185.32 519012.42 507265.72 486560.95 453967.83 409061.90 352765.40 295347.35 
 237929.27 180685.58 139350.33 108858.51 87192.01 72097.80 60549.70 51554.52 44331.90 38671.68 
 33789.31 29478.54 25722.85 21972.84 18731.59 15875.88 13414.79 11437.86 9930.80  8773.56  
 7904.28  7226.19  6685.37  6270.78  5961.10  5750.90  5584.95  5434.40  5300.05  5179.38  
 5065.22  4959.78  4857.32  4759.20  4655.53  4557.51  4463.01  4360.32  4241.92  4116.75  
 3994.88  3880.30  3773.40  3671.58  3570.71  3472.67  3376.23  3279.37  3180.47  3078.67  
 2969.17  2851.11  2720.93  2590.75  2460.72  2345.81  2230.47  2107.55  1986.36  1868.77  
 1733.35  1589.87  1446.64  1310.11  1181.38  1053.54  927.69   798.72   676.89   572.34   
 473.27   377.89   303.43   228.97   154.81   105.04   65.19    36.62    19.54    9.88     
 1.77     1.00     0.95     0.94     0.94     0.97     1.04     1.11     1.20     1.28     
 1.38     1.48     1.58     1.69     1.82     1.95     2.09     2.24     2.39     2.55     
 2.71     2.88     3.05     3.23     3.42     3.61     3.79     3.97     4.16     4.35     
 4.53     4.72     4.91     5.09     5.27     5.46     5.64     5.82     6.02     6.21     
 6.42     6.64     6.87     7.12     7.39     7.67     8.00     8.36     8.76     9.21     
 9.76     10.37    11.05    11.85    12.77    13.92    15.22    16.72    18.50    20.52    
 22.83    25.47    28.40    31.69    35.30    39.29    43.68    48.37    53.47    58.77    
 64.30    69.95    75.70    81.54    87.23    92.91    98.36    103.67   108.71   113.69   
 118.81   124.85   130.55   136.17   141.06   146.71   154.07   162.62   172.54   183.61   
 204.46   
530658.81 530009.20 526078.08 518550.88 505282.82 480689.33 442725.27 392237.53 333353.59 271579.66 
 214534.78 167043.80 129902.10 108751.37 87729.83 66708.28 55023.65 46077.67 38970.09 33177.97 
 28328.23 24266.96 20664.09 17425.59 14570.48 12261.41 10702.06 9148.44  8221.77  7568.84  
 7107.85  6757.78  6450.07  6186.88  5956.60  5767.96  5608.59  5487.63  5384.12  5277.65  
 5172.76  5073.90  4992.75  4912.16  4812.71  4700.25  4582.46  4465.03  4344.38  4218.09  
 4093.29  3972.58  3861.54  3761.02  3663.40  3565.41  3466.61  3371.02  3269.43  3155.34  
 3039.94  2927.26  2816.29  2705.33  2590.77  2470.96  2351.10  2233.25  2107.38  1975.42  
 1841.40  1708.58  1573.71  1430.85  1285.90  1147.56  1009.28  871.00   744.08   628.28   
 519.92   422.01   328.85   245.82   175.42   119.91   81.54    43.34    22.67    10.51    
 1.86     1.07     1.05     1.05     1.11     1.17     1.24     1.32     1.41     1.49     
 1.59     1.70     1.82     1.94     2.08     2.22     2.37     2.53     2.69     2.86     
 3.04     3.21     3.39     3.58     3.77     3.96     4.14     4.33     4.52     4.71     
 4.89     5.06     5.25     5.43     5.59     5.76     5.94     6.12     6.29     6.49     
 6.68     6.89     7.12     7.36     7.62     7.91     8.25     8.61     9.03     9.53     
 10.07    10.69    11.44    12.34    13.41    14.60    16.04    17.70    19.60    21.75    
 24.23    26.91    29.95    33.33    36.99    40.94    45.26    49.88    54.66    59.71    
 64.84    70.17    75.51    81.01    86.48    92.02    97.46    102.95   108.35   113.72   
 119.15   124.92   130.67   136.04   141.86   148.94   156.95   166.15   176.28   188.02   
 204.46   
530658.81 529824.70 525842.44 517380.61 501866.63 473485.58 430959.05 375412.38 313577.85 252926.23 
 199206.89 156104.10 122873.63 97225.22 80022.83 62909.73 51648.74 42637.44 35541.59 29933.39 
 25513.09 21797.98 18633.07 15894.78 13542.43 11524.48 10200.72 8884.20  8086.89  7526.95  
 7105.58  6747.96  6440.85  6183.71  5969.75  5782.57  5618.39  5478.77  5360.06  5248.40  
 5162.29  5094.40  4999.27  4888.29  4777.12  4677.10  4577.21  4463.77  4340.62  4215.37  
 4098.40  3982.39  3877.13  3783.94  3698.46  3615.46  3535.27  3451.93  3353.01  3241.57  
 3123.23  3000.75  2887.45  2780.64  2677.88  2569.99  2448.11  2318.50  2188.81  2055.52  
 1921.40  1782.89  1638.74  1490.97  1345.53  1210.47  1074.74  939.01   808.46   686.21   
 571.38   467.02   363.41   274.09   198.89   137.23   94.05    51.10    25.80    10.19    
 3.31     2.85     2.95     3.15     3.35     3.55     3.79     4.03     4.27     4.52     
 4.78     5.04     5.31     5.58     5.86     6.16     6.44     6.74     7.02     7.33     
 7.64     7.95     8.26     8.58     8.91     9.25     9.57     9.90     10.27    10.63    
 10.99    11.34    11.70    12.06    12.43    12.79    13.16    13.52    13.89    14.30    
 14.71    15.17    15.65    16.20    16.89    17.69    18.65    19.76    21.12    22.70    
 24.53    26.75    29.50    32.76    36.63    41.36    47.03    53.72    61.66    71.08    
 81.85    93.86    107.01   121.46   137.52   154.34   171.48   188.69   206.09   223.63   
 240.07   256.49   269.97   282.43   292.69   300.87   307.27   311.33   313.13   312.64   
 310.01   305.22   298.69   290.41   281.18   270.70   258.93   245.59   231.63   217.15   
 204.46   
530658.81 530507.71 526611.82 518664.47 503216.24 474216.92 430074.30 373363.61 309394.76 252713.87 
 196161.83 155793.44 123639.59 98719.11 79339.32 64947.06 53702.24 44838.07 37714.47 32142.12 
 28200.70 24259.28 20325.35 17310.87 14698.36 12476.36 10659.90 9319.02  8377.33  7703.01  
 7213.62  6825.59  6521.88  6255.65  6022.89  5824.88  5668.40  5552.41  5450.83  5351.22  
 5249.29  5155.70  5074.99  4984.22  4886.49  4768.66  4638.43  4508.61  4379.21  4253.04  
 4128.96  4016.08  3904.00  3793.07  3688.22  3579.79  3474.59  3373.81  3274.14  3165.68  
 3056.36  2940.62  2822.98  2714.46  2599.24  2484.02  2367.00  2245.59  2124.90  1996.88  
 1858.21  1712.08  1568.52  1423.51  1275.93  1129.21  992.67   865.50   746.25   631.47   
 520.88   416.91   326.41   250.87   175.53   121.21   78.00    47.66    26.72    13.93    
 3.46     2.83     2.74     2.85     3.05     3.26     3.48     3.72     3.96     4.22     
 4.47     4.73     5.00     5.28     5.56     5.84     6.12     6.41     6.72     7.02     
 7.32     7.63     7.96     8.29     8.61     8.95     9.29     9.62     9.95     10.30    
 10.64    11.00    11.37    11.71    12.07    12.43    12.79    13.17    13.56    13.95    
 14.41    14.92    15.46    16.06    16.75    17.57    18.55    19.69    20.95    22.49    
 24.31    26.47    29.00    32.02    35.71    40.20    45.58    52.07    59.76    68.87    
 79.28    91.19    104.12   119.58   135.05   151.72   169.22   186.80   204.72   222.17   
 238.82   254.22   268.01   280.53   290.81   299.32   305.73   310.05   312.03   311.88   
 309.65   305.38   299.20   291.29   282.11   271.42   259.26   246.35   232.20   217.73   
 204.46   
530658.81 530182.02 525686.86 516736.70 499189.54 467845.47 419373.38 358142.55 293098.12 234461.00 
 186092.64 148745.99 119870.28 99680.59 79584.75 66074.46 55799.20 47838.02 41410.68 36196.82 
 31771.97 27847.87 24236.31 21053.11 18161.93 15635.99 13487.93 11679.47 10376.87 9080.69  
 8167.81  7416.64  6799.69  6309.08  5958.68  5709.97  5510.23  5351.32  5214.36  5086.81  
 4965.35  4847.15  4744.53  4649.68  4554.11  4462.12  4369.38  4265.46  4152.23  4037.32  
 3924.69  3820.94  3718.09  3613.66  3505.63  3400.34  3303.86  3215.06  3123.94  3026.42  
 2915.26  2789.92  2662.52  2539.46  2420.45  2303.08  2180.54  2056.35  1930.95  1796.76  
 1655.29  1513.74  1378.94  1249.82  1123.10  996.40   869.70   741.25   631.58   530.24   
 433.71   341.75   259.84   192.84   138.88   99.34    59.98    36.21    20.63    7.76     
 3.01     2.94     2.83     2.87     3.06     3.27     3.48     3.71     3.95     4.20     
 4.45     4.71     4.97     5.24     5.51     5.79     6.07     6.37     6.66     6.97     
 7.27     7.58     7.90     8.23     8.55     8.89     9.22     9.55     9.90     10.26    
 10.60    10.96    11.32    11.67    12.03    12.40    12.78    13.19    13.60    14.04    
 14.52    15.03    15.59    16.26    17.02    17.88    18.88    20.00    21.35    22.88    
 24.57    26.64    29.12    32.05    35.59    39.97    45.33    51.71    59.31    68.49    
 79.21    91.29    104.66   119.11   135.27   152.59   170.46   188.74   207.58   226.04   
 243.57   261.09   275.88   288.41   298.99   307.05   312.55   315.75   316.90   315.58   
 312.39   307.42   300.62   292.28   282.66   271.39   258.98   245.58   231.39   217.07   
 204.46   
530658.81 530467.23 526479.20 517640.73 500962.97 469434.40 420986.79 358336.41 300294.16 242251.93 
 184379.72 147835.54 119821.59 98094.03 81724.60 69363.04 59726.95 52032.53 46025.76 41152.74 
 36885.50 32924.12 29161.46 26019.88 22878.30 19742.70 17280.88 15164.48 13404.37 11842.82 
 10464.87 9187.65  8054.86  7097.90  6385.38  5881.97  5529.00  5303.87  5142.09  4994.08  
 4863.73  4740.57  4624.03  4527.24  4444.95  4371.40  4290.58  4202.05  4100.78  4008.33  
 3916.52  3807.92  3701.38  3599.59  3509.23  3429.21  3340.22  3230.24  3102.18  2966.11  
 2830.53  2703.99  2577.46  2450.94  2326.45  2209.55  2092.53  1975.37  1847.22  1718.94  
 1579.66  1431.37  1304.81  1181.57  1057.88  932.10   810.57   696.62   580.53   482.47   
 391.81   318.58   245.34   172.29   119.81   79.66    53.10    33.53    17.43    4.97     
 2.96     3.15     2.74     2.73     2.78     2.95     3.15     3.37     3.60     3.84     
 4.07     4.31     4.57     4.83     5.11     5.38     5.65     5.93     6.22     6.51     
 6.81     7.11     7.43     7.74     8.05     8.37     8.71     9.04     9.37     9.69     
 10.04    10.40    10.77    11.13    11.48    11.84    12.23    12.63    13.04    13.47    
 13.95    14.46    15.02    15.64    16.34    17.13    18.06    19.16    20.32    21.70    
 23.37    25.23    27.45    30.15    33.42    37.47    42.43    48.56    55.98    64.96    
 75.53    87.67    101.01   117.23   133.46   151.12   169.77   188.51   208.20   227.50   
 246.14   263.82   279.84   294.16   305.96   315.04   321.15   324.38   324.63   322.44   
 318.38   312.28   304.48   295.12   284.37   272.06   258.75   244.65   229.88   215.57   
 204.46   
530658.81 529943.71 525083.95 515129.51 496676.26 463384.57 410520.49 343783.68 277153.38 218170.59 
 171812.09 136362.15 117178.80 98175.77 79172.76 67782.09 58735.58 51339.97 45440.78 40484.98 
 36032.65 31901.25 28033.53 24519.45 21336.42 18578.76 16247.53 14300.67 12608.14 11315.34 
 10027.52 8739.70  7650.84  6833.06  6277.99  5882.45  5568.56  5306.69  5085.54  4904.88  
 4757.85  4646.74  4538.86  4435.01  4345.58  4259.11  4188.65  4129.56  4066.20  3986.79  
 3886.70  3775.76  3676.26  3569.31  3443.52  3320.29  3203.89  3092.76  2986.88  2886.65  
 2787.28  2688.59  2583.25  2467.46  2343.16  2211.57  2058.34  1908.85  1763.00  1619.18  
 1478.59  1348.02  1221.11  1092.17  963.20   837.23   724.65   616.54   515.27   421.69   
 337.31   259.71   189.40   133.70   100.19   66.97    44.81    26.80    11.33    3.85     
 3.10     3.35     2.98     2.95     2.95     3.10     3.30     3.50     3.72     3.94     
 4.18     4.43     4.67     4.92     5.20     5.47     5.74     6.02     6.30     6.59     
 6.90     7.20     7.50     7.81     8.12     8.44     8.76     9.08     9.42     9.74     
 10.08    10.42    10.76    11.12    11.47    11.81    12.17    12.54    12.92    13.31    
 13.71    14.14    14.61    15.12    15.73    16.47    17.32    18.28    19.39    20.73    
 22.23    23.99    26.16    28.77    31.93    35.85    40.76    46.97    54.67    63.97    
 75.11    87.84    102.25   118.23   135.57   153.76   172.67   192.39   212.10   232.07   
 252.04   269.63   285.91   299.94   311.75   320.83   327.12   330.46   330.76   328.22   
 323.08   315.54   306.72   295.86   283.91   270.75   256.76   242.41   227.59   213.15   
 204.46   
530658.81 530185.95 525710.70 516020.65 498241.37 465285.26 412220.10 344379.37 284967.43 225555.46 
 166348.56 132855.72 108819.98 90867.06 77129.09 66119.71 56988.30 49233.54 42900.13 37710.83 
 33151.95 29028.34 25395.88 21767.88 18673.25 16015.45 13806.31 12022.96 10577.18 9333.64  
 8297.30  7400.40  6689.97  6223.42  5955.54  5754.25  5557.67  5349.28  5121.27  4893.95  
 4696.75  4549.71  4418.41  4300.07  4195.53  4111.86  4030.59  3947.27  3860.33  3771.39  
 3681.70  3598.37  3510.20  3418.25  3323.27  3231.53  3144.20  3055.45  2941.26  2806.32  
 2681.68  2557.04  2432.45  2313.54  2177.08  2059.25  1940.93  1821.54  1706.52  1589.74  
 1467.71  1332.04  1196.69  1053.75  924.26   799.61   688.65   581.66   480.06   393.72   
 319.95   246.18   172.65   126.19   92.50    65.47    44.59    27.07    11.06    3.61     
 2.85     3.19     2.72     2.63     2.70     2.86     3.04     3.22     3.44     3.65     
 3.87     4.10     4.34     4.60     4.87     5.13     5.40     5.66     5.95     6.24     
 6.53     6.82     7.13     7.44     7.75     8.08     8.40     8.73     9.06     9.40     
 9.74     10.10    10.47    10.82    11.17    11.54    11.90    12.27    12.64    13.00    
 13.36    13.71    14.09    14.50    14.98    15.52    16.17    16.92    17.79    18.91    
 20.24    21.85    23.79    26.19    29.16    32.92    37.63    43.66    51.18    60.64    
 71.91    85.26    99.83    117.41   134.99   153.80   173.35   193.07   213.22   232.88   
 251.94   269.95   286.43   301.24   313.49   323.33   330.31   334.56   336.06   334.69   
 330.66   323.89   314.78   304.19   291.60   277.88   263.64   248.97   234.09   219.37   
 204.46   
530658.81 529464.99 524117.48 513350.46 493592.25 457943.15 400659.93 329178.29 259694.05 201643.28 
 157941.45 126765.95 109244.64 91874.27 74503.90 63671.67 54796.50 47173.69 40985.69 35706.48 
 31124.42 26968.74 23200.70 19800.17 16810.33 14326.45 12341.67 10880.98 9425.60  8355.05  
 7542.33  6860.25  6315.26  5965.07  5754.74  5610.00  5487.17  5326.54  5128.41  4916.56  
 4723.73  4558.72  4418.83  4307.23  4205.96  4100.81  3986.81  3871.11  3757.00  3633.29  
 3515.81  3409.66  3324.43  3246.26  3161.78  3058.42  2960.84  2876.93  2803.59  2730.75  
 2652.32  2557.66  2442.21  2291.33  2135.61  1973.44  1825.59  1689.51  1559.16  1436.09  
 1314.29  1187.70  1061.44  935.20   824.01   723.65   621.31   522.60   429.62   350.70   
 273.41   211.43   154.40   122.40   90.66    58.92    39.43    22.02    6.92     3.32     
 2.80     2.79     2.62     2.71     2.85     3.02     3.20     3.39     3.59     3.79     
 4.01     4.25     4.48     4.73     4.99     5.27     5.53     5.80     6.08     6.36     
 6.66     6.96     7.26     7.57     7.90     8.22     8.55     8.88     9.23     9.57     
 9.93     10.28    10.65    11.02    11.38    11.74    12.12    12.50    12.87    13.23    
 13.59    13.95    14.32    14.72    15.16    15.65    16.21    16.92    17.77    18.81    
 20.03    21.61    23.53    25.95    28.97    32.80    37.69    43.85    51.76    61.72    
 73.72    87.51    102.86   119.57   138.11   157.35   176.74   196.08   215.78   235.80   
 255.82   272.97   288.63   303.06   314.73   323.56   330.21   333.86   334.89   333.35   
 328.90   321.82   312.74   301.94   289.93   277.27   263.99   250.27   235.82   220.28   
 204.46   
