IESNA:LM-63-2002
[TEST] 1
[TESTLAB] AOK
[TESTDATE] 2022-06-25
[ISSUEDATE] 2022-06-25 11:45:21
[NEARFIELD] 
[LAMPPOSITION] 0,0
[OTHER] EVERFINE GO-2000A_V1 SYSTEM
[MANUFAC] AOK
[LUMCAT] A
[LUMINAIRE] AOK-600WiSF-HV-S35-00-5070-2030D-P
[LAMPCAT] B
[LAMP] 3535
[BALLAST] E
[BALLASTCAT] F
[OTHER] 
[OTHER] Gamma(deg)    Fz(lm)      Ft(lm)     %Lum    %Lamp
[OTHER]   0- 10     23830.58    23830.58    31.29    31.29
[OTHER]  10- 20     25933.45    49764.04    65.34    65.34
[OTHER]  20- 30     10938.13    60702.16    79.71    79.71
[OTHER]  30- 40      5425.41    66127.57    86.83    86.83
[OTHER]  40- 50      3442.66    69570.23    91.35    91.35
[OTHER]  50- 60      2659.04    72229.27    94.84    94.84
[OTHER]  60- 70      1828.52    74057.79    97.24    97.24
[OTHER]  70- 80       882.73    74940.52    98.40    98.40
[OTHER]  80- 90       384.23    75324.75    98.91    98.91
[OTHER]  90-100       212.46    75537.21    99.18    99.18
[OTHER] 100-110       155.38    75692.59    99.39    99.39
[OTHER] 110-120       125.00    75817.59    99.55    99.55
[OTHER] 120-130        95.04    75912.63    99.68    99.68
[OTHER] 130-140        68.88    75981.51    99.77    99.77
[OTHER] 140-150        56.24    76037.76    99.84    99.84
[OTHER] 150-160        57.54    76095.30    99.92    99.92
[OTHER] 160-170        46.19    76141.49    99.98    99.98
[OTHER] 170-180        16.65    76158.15   100.00   100.00
[OTHER] 
TILT=NONE
1 76158 1 181 25 1 2 0.150 0.200 0.000
1.000 1 622.218
0.0    1.0    2.0    3.0    4.0    5.0    6.0    7.0    8.0    9.0    
 10.0   11.0   12.0   13.0   14.0   15.0   16.0   17.0   18.0   19.0   
 20.0   21.0   22.0   23.0   24.0   25.0   26.0   27.0   28.0   29.0   
 30.0   31.0   32.0   33.0   34.0   35.0   36.0   37.0   38.0   39.0   
 40.0   41.0   42.0   43.0   44.0   45.0   46.0   47.0   48.0   49.0   
 50.0   51.0   52.0   53.0   54.0   55.0   56.0   57.0   58.0   59.0   
 60.0   61.0   62.0   63.0   64.0   65.0   66.0   67.0   68.0   69.0   
 70.0   71.0   72.0   73.0   74.0   75.0   76.0   77.0   78.0   79.0   
 80.0   81.0   82.0   83.0   84.0   85.0   86.0   87.0   88.0   89.0   
 90.0   91.0   92.0   93.0   94.0   95.0   96.0   97.0   98.0   99.0   
 100.0  101.0  102.0  103.0  104.0  105.0  106.0  107.0  108.0  109.0  
 110.0  111.0  112.0  113.0  114.0  115.0  116.0  117.0  118.0  119.0  
 120.0  121.0  122.0  123.0  124.0  125.0  126.0  127.0  128.0  129.0  
 130.0  131.0  132.0  133.0  134.0  135.0  136.0  137.0  138.0  139.0  
 140.0  141.0  142.0  143.0  144.0  145.0  146.0  147.0  148.0  149.0  
 150.0  151.0  152.0  153.0  154.0  155.0  156.0  157.0  158.0  159.0  
 160.0  161.0  162.0  163.0  164.0  165.0  166.0  167.0  168.0  169.0  
 170.0  171.0  172.0  173.0  174.0  175.0  176.0  177.0  178.0  179.0  
 180.0  
0.0    15.0   30.0   45.0   60.0   75.0   90.0   105.0  120.0  135.0  
 150.0  165.0  180.0  195.0  210.0  225.0  240.0  255.0  270.0  285.0  
 300.0  315.0  330.0  345.0  360.0  
333213.28 333446.43 329513.05 320166.89 274372.08 226778.25 181302.77 130416.56 95479.76 60737.89 
 39336.59 20052.19 6961.22  895.90   746.37   659.16   548.21   294.00   125.62   86.12    
 48.18    36.74    29.35    24.12    20.44    17.74    15.52    13.73    12.48    11.36    
 10.64    11.09    11.03    11.05    10.15    9.55     8.85     7.82     6.96     6.29     
 6.08     5.86     5.57     5.35     5.11     4.96     5.04     5.03     4.63     4.34     
 4.19     4.10     4.09     4.09     4.24     4.28     4.16     4.06     4.06     4.05     
 4.04     4.04     4.03     4.03     4.00     4.00     3.97     3.95     3.93     3.93     
 3.93     3.93     3.93     3.93     3.93     3.93     3.93     3.93     3.93     3.93     
 3.92     3.88     3.88     3.97     4.23     4.44     4.56     4.67     4.72     4.77     
 4.82     4.90     4.95     4.95     4.96     4.98     5.08     5.21     5.39     5.60     
 5.86     6.14     6.46     6.82     7.20     7.60     7.99     8.38     8.76     9.14     
 9.51     9.85     10.21    10.56    10.94    11.37    11.81    12.29    12.79    13.37    
 13.94    14.56    15.19    15.87    16.58    17.34    18.10    18.93    19.81    20.73    
 21.68    22.65    23.66    24.67    25.77    27.09    28.64    30.48    32.63    35.14    
 37.95    41.22    44.96    49.13    53.82    59.17    65.32    72.40    80.27    89.79    
 100.69   112.88   126.41   140.53   156.16   172.50   189.03   205.61   222.40   239.21   
 256.01   270.80   283.67   294.01   301.79   306.35   307.96   306.55   302.37   296.04   
 287.95   278.33   267.26   255.68   243.46   230.89   218.00   205.08   191.84   177.40   
 160.86   
333213.28 333191.30 330560.95 323045.47 298318.06 250401.71 202551.66 160984.32 110581.38 83423.86 
 50075.93 34546.28 19074.02 10358.61 1719.15  1524.54  1103.70  812.23   826.45   652.42   
 491.58   336.37   279.05   221.73   164.53   121.94   95.67    74.91    59.63    49.66    
 44.98    40.45    37.52    28.54    21.42    17.77    14.83    12.67    10.99    9.75     
 9.18     9.20     9.11     8.94     8.57     8.26     7.98     7.71     7.51     7.12     
 6.71     6.42     6.16     5.91     5.69     5.48     5.26     5.10     4.97     4.80     
 4.61     4.44     4.26     4.10     3.95     3.86     3.75     3.66     3.59     3.52     
 3.44     3.36     3.28     3.22     3.18     3.14     3.09     3.09     3.09     3.11     
 3.14     3.17     3.21     3.25     3.31     3.38     3.44     3.53     3.62     3.73     
 3.84     3.96     4.08     4.21     4.35     4.53     4.71     4.94     5.18     5.45     
 5.71     6.02     6.34     6.68     7.06     7.43     7.80     8.16     8.53     8.90     
 9.27     9.65     10.03    10.42    10.85    11.33    11.84    12.38    12.93    13.50    
 14.10    14.76    15.47    16.19    16.94    17.73    18.57    19.46    20.38    21.32    
 22.29    23.32    24.38    25.50    26.74    28.26    30.08    32.22    34.58    37.38    
 40.60    44.16    48.17    52.68    57.80    63.64    70.16    77.77    86.48    96.47    
 107.98   121.42   134.88   150.10   165.55   181.74   198.28   214.48   231.06   247.02   
 262.19   276.20   288.22   297.63   303.99   307.00   307.11   304.23   298.74   291.36   
 282.31   272.02   261.07   249.43   237.56   225.38   212.85   200.21   186.27   171.38   
 160.86   
333213.28 332395.61 329371.26 321256.56 309226.79 269666.08 224542.48 183968.06 146502.44 114430.99 
 82423.39 50415.81 36962.03 19722.63 12585.02 7494.46  2424.11  2163.62  1710.65  1313.49  
 1085.06  858.64   632.22   459.03   358.56   288.70   207.97   170.62   152.21   125.37   
 105.41   85.53    74.50    64.29    56.51    49.01    42.46    36.35    31.66    27.25    
 23.25    19.77    17.54    15.89    14.81    13.71    12.78    12.18    11.40    10.56    
 9.73     8.82     7.94     7.36     6.95     6.62     6.24     5.85     5.47     5.11     
 4.85     4.66     4.51     4.36     4.19     3.99     3.77     3.58     3.43     3.32     
 3.23     3.15     3.08     3.02     2.96     2.90     2.84     2.77     2.73     2.71     
 2.71     2.72     2.77     2.85     2.93     3.03     3.14     3.26     3.39     3.54     
 3.70     3.87     4.06     4.26     4.48     4.71     4.95     5.20     5.46     5.72     
 5.98     6.26     6.54     6.83     7.15     7.47     7.81     8.17     8.54     8.93     
 9.33     9.74     10.18    10.65    11.12    11.62    12.11    12.65    13.21    13.81    
 14.41    15.06    15.74    16.44    17.15    17.92    18.72    19.57    20.48    21.46    
 22.54    23.84    25.32    26.99    28.92    31.07    33.59    36.41    39.59    43.12    
 47.03    51.36    56.18    61.73    68.11    75.19    83.10    91.91    101.63   112.71   
 125.01   137.94   151.46   165.30   179.25   193.96   209.34   224.49   239.28   254.06   
 266.75   277.72   286.14   291.98   295.43   296.21   294.51   290.64   284.59   277.20   
 268.31   258.70   248.73   238.13   226.97   215.62   204.19   192.89   181.01   169.14   
 160.86   
333213.28 332371.39 328545.96 321494.50 311253.30 297222.33 263365.26 229508.19 195627.24 158602.30 
 126481.45 95054.18 68830.20 56738.48 36042.90 26046.87 16108.55 12240.65 7163.09  2121.21  
 1873.00  1549.92  1119.52  787.93   550.54   355.43   273.01   191.07   161.40   138.37   
 119.91   105.26   93.36    83.47    74.87    67.14    59.86    54.28    49.52    44.59    
 39.95    35.86    32.17    28.79    25.59    22.32    18.96    16.44    14.32    12.93    
 12.00    11.21    10.52    9.94     9.44     8.99     8.54     8.16     7.81     7.49     
 7.18     6.87     6.58     6.32     6.10     5.89     5.66     5.44     5.18     4.92     
 4.65     4.36     4.10     3.87     3.63     3.38     3.16     2.97     2.79     2.65     
 2.58     2.59     2.63     2.70     2.78     2.89     3.00     3.13     3.27     3.42     
 3.58     3.75     3.94     4.14     4.35     4.56     4.78     5.02     5.27     5.53     
 5.80     6.08     6.38     6.69     7.03     7.36     7.71     8.08     8.45     8.83     
 9.24     9.66     10.08    10.50    10.95    11.44    11.95    12.47    12.99    13.52    
 14.09    14.70    15.38    16.11    16.88    17.75    18.76    19.87    21.10    22.49    
 24.05    25.77    27.75    29.91    32.28    34.95    37.99    41.34    45.03    49.17    
 53.90    59.15    64.95    71.47    78.77    86.91    95.67    105.33   115.63   127.45   
 139.28   151.49   163.96   177.37   190.60   204.05   217.13   229.46   241.25   251.57   
 260.55   268.11   273.66   277.42   279.23   279.17   277.33   273.81   268.99   262.84   
 256.28   248.57   240.02   230.93   221.89   212.76   203.45   194.04   184.42   174.84   
 160.86   
333213.28 331231.19 325496.90 317655.34 306994.92 294757.53 279963.72 262265.61 242063.54 209972.77 
 174178.12 146035.61 122881.86 100554.09 78234.74 61491.49 42928.48 33077.15 26505.96 17766.82 
 13392.51 10757.94 8143.15  5528.37  3767.78  1617.18  1186.71  960.75   736.71   532.42   
 385.25   292.55   235.89   198.03   166.33   140.41   121.43   102.52   88.60    77.03    
 67.67    60.61    54.40    49.10    44.41    39.90    36.27    33.50    30.91    28.72    
 26.80    24.80    22.51    20.30    17.96    15.81    14.09    12.87    12.05    11.48    
 11.08    10.78    10.45    10.15    9.90     9.71     9.50     9.30     9.11     8.91     
 8.65     8.34     7.96     7.55     7.08     6.55     5.91     5.17     4.43     3.69     
 3.10     2.87     2.85     2.89     2.98     3.08     3.20     3.32     3.45     3.59     
 3.75     3.92     4.10     4.30     4.52     4.74     4.98     5.24     5.52     5.80     
 6.10     6.41     6.74     7.08     7.43     7.79     8.16     8.54     8.93     9.32     
 9.72     10.12    10.55    10.98    11.44    11.91    12.40    12.90    13.47    14.06    
 14.73    15.45    16.27    17.16    18.12    19.16    20.40    21.74    23.19    24.75    
 26.48    28.42    30.55    32.99    35.65    38.73    42.23    46.25    50.81    55.93    
 61.60    67.97    74.83    82.56    90.98    100.07   109.59   119.59   130.12   141.23   
 152.65   164.05   175.40   186.62   198.01   208.87   218.93   228.09   236.32   243.92   
 251.52   256.28   259.86   262.33   263.42   263.25   261.79   259.22   255.57   251.42   
 246.03   240.27   233.62   226.90   220.02   212.79   205.37   197.65   189.66   181.49   
 160.86   
333213.28 330399.65 324678.03 316575.11 305902.51 294241.08 281144.21 266642.47 249756.64 232849.76 
 213220.36 192729.29 170297.89 148182.01 126380.40 106566.34 88662.25 71781.04 56572.52 43885.00 
 35991.46 30743.07 26719.32 22694.20 18521.95 15919.06 13877.13 12025.17 10102.57 7905.35  
 6482.50  5334.67  4366.03  3638.40  2995.26  2354.25  1960.44  1622.76  1323.25  1072.83  
 867.20   683.87   538.58   434.61   351.41   289.64   227.88   166.38   134.50   110.12   
 92.68    79.15    68.29    60.26    52.88    47.43    43.11    39.14    36.21    33.84    
 31.89    30.00    28.54    27.21    26.10    24.83    23.27    21.74    20.50    19.70    
 19.30    19.17    19.06    18.91    18.76    18.51    18.11    17.34    15.72    13.30    
 9.86     5.69     2.56     2.44     2.50     2.58     2.66     2.75     2.85     2.95     
 3.07     3.21     3.36     3.53     3.71     3.91     4.12     4.35     4.59     4.86     
 5.13     5.41     5.70     6.02     6.36     6.71     7.07     7.45     7.83     8.23     
 8.63     9.06     9.50     9.94     10.38    10.88    11.39    11.91    12.46    13.06    
 13.73    14.48    15.31    16.21    17.21    18.29    19.48    20.80    22.25    23.82    
 25.54    27.49    29.66    32.12    34.92    38.15    41.95    46.23    51.03    56.47    
 62.63    69.44    76.83    84.83    93.39    102.55   111.98   122.26   132.55   142.66   
 153.12   163.23   173.16   183.36   192.95   202.33   211.19   219.42   227.46   234.52   
 240.91   246.63   251.36   255.42   258.32   260.18   260.89   260.84   259.35   256.84   
 253.66   249.67   244.65   238.79   232.79   226.12   218.78   211.20   203.41   195.40   
 160.86   
333213.28 329203.43 322595.93 313881.44 302968.46 291658.15 278785.29 264923.37 250549.27 234030.44 
 217492.78 199193.24 179270.60 157641.10 135267.85 113982.52 95495.32 79936.91 67172.56 56704.25 
 48274.65 41676.37 36443.04 32151.39 28514.88 25614.67 23271.25 20930.31 18794.03 16728.88 
 14808.06 13015.64 11451.64 10043.35 8845.25  7889.68  7154.79  6507.84  5973.46  5559.56  
 5193.17  4858.96  4588.42  4402.21  4205.75  4020.03  3799.17  3557.04  3298.29  3028.17  
 2768.81  2543.38  2318.21  2113.21  1922.94  1748.30  1587.31  1431.59  1292.87  1169.00  
 1058.14  958.05   862.78   773.52   689.99   612.02   542.92   480.74   424.37   373.59   
 328.39   287.75   256.10   224.44   192.88   169.17   149.40   131.47   115.92   102.58   
 90.44    78.47    65.49    14.50    4.46     2.47     1.89     1.69     1.54     1.44     
 1.37     1.29     1.28     1.28     1.28     1.30     1.32     1.35     1.38     1.40     
 1.43     1.47     1.50     1.54     1.58     1.62     1.67     1.72     1.77     1.84     
 1.89     1.95     2.02     2.09     2.16     2.23     2.31     2.38     2.48     2.58     
 2.69     2.81     2.94     3.09     3.25     3.44     3.64     3.87     4.11     4.38     
 4.70     5.04     5.41     5.90     6.41     6.99     7.67     8.44     9.30     10.28    
 11.37    12.56    13.84    15.27    16.80    18.46    20.17    21.95    23.76    25.63    
 27.58    29.52    31.52    33.56    35.66    37.83    40.14    42.61    45.23    47.94    
 50.75    53.77    57.00    60.52    64.28    68.50    73.20    78.78    84.78    91.72    
 99.62    108.37   117.89   128.03   138.59   149.35   160.24   171.15   181.69   191.76   
 160.86   
333213.28 328782.50 321923.22 313702.42 303438.33 292230.35 281252.91 269052.97 255807.54 240829.14 
 224762.46 207000.46 187882.59 167680.15 146932.23 126256.73 109188.60 92147.07 75105.54 63741.48 
 55339.03 48693.27 43490.92 39415.29 35820.17 32707.80 30055.26 27570.15 25087.15 22707.42 
 20439.62 18295.32 16266.96 14396.59 12761.16 11357.51 10344.18 9333.95  8597.18  8035.63  
 7591.75  7229.26  6898.57  6619.77  6364.33  6142.09  5920.13  5716.80  5515.57  5320.96  
 5118.40  4899.34  4668.49  4430.54  4181.67  3937.74  3699.67  3486.89  3292.19  3107.34  
 2924.51  2757.30  2597.51  2445.16  2304.12  2164.36  2024.60  1892.22  1762.24  1638.48  
 1522.54  1412.50  1305.89  1199.80  1106.12  1012.56  928.72   849.28   772.67   706.20   
 645.51   589.71   539.89   495.80   456.26   423.07   393.49   366.33   346.95   327.19   
 307.67   289.96   275.27   260.81   247.69   235.70   223.48   211.80   202.34   192.19   
 182.83   174.22   166.50   159.21   151.71   144.66   138.15   132.32   127.26   121.27   
 115.28   110.38   104.99   99.76    94.50    89.64    85.39    80.88    76.78    72.13    
 67.73    63.67    59.59    54.90    50.56    46.11    41.73    35.75    29.11    22.59    
 16.71    12.46    10.20    8.73     7.21     5.69     5.44     5.89     6.57     7.40     
 8.34     9.35     10.48    11.74    13.12    14.60    16.14    17.76    19.50    21.28    
 23.10    24.91    26.78    28.65    30.55    32.37    34.30    36.30    38.29    40.35    
 42.46    44.64    46.89    49.34    51.92    54.90    58.47    62.69    67.72    74.10    
 81.34    89.89    99.64    110.32   121.83   133.90   146.20   158.86   171.10   183.04   
 160.86   
333213.28 329323.99 323439.90 315376.59 305882.72 296181.55 285311.25 273500.70 260530.87 243918.12 
 227305.36 210656.92 190776.99 170758.09 151074.18 131664.61 112948.61 95461.94 79815.08 67908.56 
 59850.24 53808.19 48856.97 44782.17 41058.42 37660.29 34717.88 31819.18 29026.27 26368.51 
 23710.75 21056.17 18709.49 16631.47 14743.28 13103.04 11694.52 10532.91 9614.82  8948.58  
 8449.71  8082.09  7768.58  7518.66  7281.76  7055.20  6843.64  6643.28  6463.96  6278.99  
 6110.46  5944.43  5759.09  5560.45  5346.74  5128.66  4904.63  4673.16  4441.89  4193.92  
 3955.73  3718.55  3499.59  3300.64  3107.27  2911.92  2727.05  2542.18  2357.43  2183.51  
 2014.73  1852.95  1703.24  1559.72  1429.46  1303.20  1185.46  1076.60  974.47   885.78   
 805.19   736.93   678.58   628.68   584.27   545.41   512.12   480.84   456.66   434.09   
 412.37   391.32   372.86   357.11   342.29   328.30   315.91   303.86   292.70   282.73   
 272.99   264.48   256.57   249.54   242.81   236.33   229.85   223.38   218.43   213.59   
 209.06   204.43   200.03   196.07   191.95   187.91   183.95   180.15   176.30   172.71   
 169.50   165.98   162.60   159.46   156.04   152.27   148.94   145.42   141.86   138.48   
 134.79   130.89   127.11   123.22   118.97   114.67   109.72   104.23   98.60    92.93    
 86.85    80.11    72.24    64.42    60.01    57.37    55.02    49.26    25.34    19.56    
 18.95    19.98    21.85    23.96    26.13    28.33    30.53    32.74    35.00    37.29    
 39.58    41.84    44.04    46.25    48.50    50.76    53.27    56.27    59.80    64.21    
 69.69    76.58    85.12    94.91    106.02   118.52   132.30   146.69   161.28   175.78   
 160.86   
333213.28 329401.00 323148.68 315115.54 306207.31 296574.83 285700.01 273015.74 256640.73 235345.11 
 211228.93 187674.77 166590.11 147169.47 129836.44 115370.54 100926.37 86482.21 75826.83 67105.83 
 60172.05 54559.35 49564.00 44937.42 40325.62 36015.04 31753.78 27777.60 23800.53 20135.72 
 17090.88 14887.67 13340.67 12256.67 11611.08 10969.17 10327.27 9865.16  9459.88  9076.46  
 8736.39  8412.97  8119.80  7841.55  7601.86  7384.30  7167.72  6979.29  6790.30  6592.96  
 6390.96  6181.65  5973.46  5787.44  5597.28  5394.80  5189.83  4982.07  4770.72  4554.19  
 4335.63  4111.72  3900.22  3690.42  3475.10  3264.08  3057.45  2852.45  2647.07  2445.65  
 2247.03  2073.81  1905.22  1742.14  1588.60  1442.68  1307.53  1181.18  1080.37  979.78   
 896.77   826.68   759.84   702.07   650.09   605.10   562.28   528.04   502.66   479.88   
 457.30   436.80   418.16   401.92   387.97   375.43   364.27   354.28   346.00   337.92   
 330.13   323.53   317.46   311.82   306.66   301.50   297.11   292.90   289.19   285.24   
 281.36   277.58   274.43   271.29   267.98   264.58   261.52   258.48   255.38   252.16   
 248.29   244.67   240.85   237.02   233.45   229.96   226.05   221.75   217.42   213.20   
 208.86   204.81   200.17   195.61   190.66   186.18   181.63   177.15   172.21   167.17   
 162.24   156.91   152.26   147.27   142.49   137.63   132.09   123.08   114.05   104.61   
 99.23    95.04    85.97    82.93    82.13    77.99    55.31    37.68    34.96    35.08    
 36.57    38.34    40.93    43.84    46.74    49.72    52.63    55.44    58.38    61.73    
 65.64    70.56    76.63    84.20    93.20    103.99   116.67   131.16   146.52   163.00   
 160.86   
333213.28 329930.92 323882.86 315978.26 306847.11 296704.62 283923.43 266771.15 241596.93 216393.30 
 188439.54 163988.27 142978.65 125911.48 111696.44 99884.46 89288.40 80171.14 72266.90 65591.98 
 59156.00 52924.15 46351.97 39845.04 33586.49 29168.71 24750.92 20363.27 18446.68 17116.45 
 16041.13 15100.63 14329.71 13656.26 13030.56 12446.69 11873.68 11347.20 10895.29 10471.15 
 10047.93 9665.18  9300.11  8975.56  8649.65  8344.28  8028.35  7726.76  7429.30  7179.28  
 6913.72  6674.42  6441.71  6227.90  6022.37  5827.59  5634.29  5430.86  5210.07  4999.24  
 4791.29  4591.75  4365.05  4125.39  3894.47  3643.51  3399.51  3174.22  2952.20  2737.52  
 2522.84  2308.39  2113.32  1932.46  1757.32  1608.18  1470.59  1342.35  1223.94  1120.65  
 1033.88  949.01   872.48   804.36   745.59   690.68   643.20   604.48   571.76   545.16   
 521.38   497.99   475.32   455.70   440.32   426.48   416.00   407.07   399.78   392.97   
 387.78   383.08   379.41   376.18   373.93   371.60   369.83   368.14   366.46   365.00   
 363.87   362.53   361.01   359.23   356.89   353.72   349.30   344.54   339.51   333.45   
 327.15   320.40   313.27   306.53   300.18   293.99   287.77   281.80   275.88   269.77   
 263.21   257.35   251.81   246.31   240.04   233.77   227.50   220.66   212.85   204.32   
 194.55   186.95   180.68   174.89   170.96   168.30   165.11   159.67   156.27   151.58   
 146.92   142.96   133.21   127.08   122.12   116.45   112.05   101.44   99.94    94.47    
 72.54    42.02    42.28    43.92    46.11    49.82    53.79    57.75    61.56    65.16    
 68.49    71.96    75.85    80.63    86.70    94.57    104.56   117.27   132.21   148.90   
 160.86   
333213.28 329520.38 322673.72 313938.62 303959.70 291427.64 273541.42 250022.86 221780.00 191909.67 
 163608.99 140947.22 123405.42 111068.98 98774.47 89635.99 81945.44 75035.13 68757.19 62255.90 
 54929.60 46998.26 39239.68 32175.46 27295.02 24476.21 22775.01 21549.25 20537.11 19625.90 
 18842.21 18178.39 17523.58 16912.38 16258.01 15559.72 14876.91 14218.00 13517.59 12830.78 
 12152.01 11606.11 11061.48 10516.85 10031.87 9547.82  9103.91  8690.45  8298.11  7943.29  
 7607.75  7292.28  7019.09  6793.62  6603.09  6444.96  6358.55  6332.15  6322.30  6267.61  
 6102.92  5775.97  5509.06  5134.53  4824.70  4470.98  4108.02  3796.74  3434.15  3115.67  
 2840.12  2607.08  2392.63  2186.54  2006.99  1842.54  1691.45  1549.32  1418.09  1305.02  
 1204.55  1113.16  1021.84  942.40   872.98   809.09   756.65   706.43   667.68   634.69   
 605.63   577.69   549.46   524.60   502.49   483.43   468.06   455.87   446.13   438.57   
 432.67   428.52   425.46   423.41   421.70   420.65   420.39   420.17   418.74   416.66   
 414.26   412.69   411.85   410.89   409.63   407.50   404.72   401.21   396.81   390.99   
 384.29   376.76   368.40   359.51   350.58   341.30   331.98   323.09   314.44   306.41   
 298.61   290.85   283.01   275.51   268.37   261.52   244.61   234.66   229.36   225.25   
 219.70   213.60   207.37   200.88   194.35   188.29   182.06   175.22   169.46   164.36   
 159.04   155.04   150.86   147.15   141.16   131.60   127.62   123.69   120.79   108.99   
 105.16   97.97    59.75    47.74    51.33    54.78    58.78    63.64    68.46    73.03    
 76.88    80.26    83.24    86.24    89.85    95.41    103.61   114.94   128.48   144.17   
 160.86   
333213.28 330042.35 323626.76 314926.68 304469.90 289896.15 269779.44 241344.42 212876.32 181238.17 
 153430.41 133031.25 117683.68 105511.63 96030.10 88170.24 81511.26 75391.80 69269.54 62606.45 
 54788.77 46243.00 38005.56 31825.99 28183.52 26258.90 25256.02 24253.14 23254.33 22581.40 
 21936.98 21315.76 20690.00 19977.03 19170.79 18305.08 17378.33 16428.77 15490.04 14583.28 
 13757.62 12986.53 12276.70 11615.41 10973.78 10399.15 9910.97  9449.46  8997.63  8581.47  
 8221.74  7905.12  7626.92  7367.56  7152.73  7067.30  7362.29  7535.75  7747.31  7769.55  
 7501.05  7077.19  6676.65  6181.14  5740.73  5343.07  4834.78  4414.64  3953.40  3562.25  
 3211.09  2941.14  2700.04  2459.40  2256.27  2067.38  1892.32  1737.36  1591.38  1466.18  
 1349.52  1241.37  1142.31  1052.70  971.89   898.52   832.18   775.03   726.41   688.17   
 651.99   621.13   589.86   560.47   533.23   510.64   490.70   473.65   460.43   448.98   
 440.63   434.34   430.06   427.13   425.08   423.37   421.80   420.84   420.02   417.22   
 413.74   408.98   405.22   402.41   399.65   396.67   393.51   389.78   385.73   380.68   
 374.55   367.05   359.51   351.62   343.42   335.09   326.59   318.01   310.16   302.50   
 295.09   287.84   280.34   273.03   265.98   259.27   252.80   239.36   226.02   220.73   
 215.62   210.72   205.63   200.40   195.22   189.74   184.60   179.51   174.62   169.71   
 165.22   160.54   157.29   154.17   151.26   147.91   144.38   137.73   129.36   123.12   
 109.71   106.89   96.54    55.90    57.90    61.12    65.32    70.79    76.50    81.89    
 86.71    90.77    94.10    96.65    98.67    101.39   106.06   113.80   125.58   141.96   
 160.86   
333213.28 329763.36 322753.83 314110.43 303407.08 288352.56 267057.04 239650.76 208339.27 177392.60 
 151501.31 132793.08 118879.66 108676.61 98503.38 90809.08 84446.95 78505.45 72840.24 66541.02 
 58946.16 50686.49 42288.76 35072.24 30311.18 27739.54 26260.06 25300.96 24527.16 23891.27 
 23340.79 22799.11 22101.28 21301.88 20401.41 19403.88 18349.41 17290.49 16238.41 15275.57 
 14377.66 13540.43 12715.79 11975.38 11335.49 10696.48 10135.72 9647.54  9177.44  8758.70  
 8356.50  8004.86  7712.56  7447.61  7193.07  6995.48  6956.83  7124.75  7156.60  7151.55  
 6964.46  6635.33  6308.33  5902.22  5525.38  5154.92  4801.57  4359.82  3954.68  3579.12  
 3266.40  3009.88  2775.58  2529.45  2309.57  2115.93  1942.02  1784.94  1638.57  1499.60  
 1383.86  1273.20  1179.42  1085.78  992.13   919.36   851.29   792.49   740.81   698.25   
 663.86   631.82   602.37   573.12   545.67   520.93   499.28   481.38   466.13   453.19   
 442.58   433.52   426.19   420.39   414.83   409.58   404.78   400.24   395.39   389.62   
 383.14   376.87   371.00   365.53   360.58   355.38   350.17   344.63   338.38   332.16   
 325.24   318.75   312.35   305.65   299.16   292.81   286.63   280.45   274.38   268.64   
 263.04   257.35   251.40   245.92   240.54   234.85   227.19   216.28   211.69   207.23   
 202.48   198.11   194.00   189.60   185.40   180.47   176.18   171.86   167.28   163.52   
 159.07   155.98   152.37   149.19   144.09   139.41   135.26   131.68   122.33   112.93   
 107.15   96.93    60.92    61.05    65.02    69.10    74.84    81.06    86.97    92.38    
 97.11    101.09   104.20   106.48   108.32   110.41   113.73   119.46   128.00   139.72   
 160.86   
333213.28 330780.48 325228.87 317529.07 308186.73 295824.02 279383.69 254741.21 230098.74 205443.04 
 179581.64 158104.95 140450.53 126242.45 113547.02 103522.69 95019.69 87555.07 81002.62 74590.82 
 68465.88 61833.74 54371.30 46669.07 39089.28 32750.88 28220.44 25846.77 23487.06 22249.70 
 21314.07 20499.80 19767.45 19113.29 18457.42 17757.54 16981.62 16176.82 15339.53 14540.83 
 13770.42 12987.46 12280.39 11631.94 11055.11 10508.47 9968.27  9456.62  8985.85  8566.00  
 8184.92  7814.66  7464.18  7166.45  6901.27  6668.50  6457.74  6249.07  6044.51  5843.46  
 5664.47  5457.45  5221.00  4972.52  4704.86  4438.86  4167.48  3888.14  3625.07  3360.89  
 3107.59  2879.29  2665.17  2451.30  2257.51  2069.88  1882.27  1720.67  1571.72  1440.94  
 1319.51  1207.12  1110.69  1019.13  935.73   861.03   795.49   739.92   689.42   645.24   
 610.43   582.18   556.26   531.45   507.17   483.50   463.65   444.42   428.65   414.36   
 402.19   391.74   382.31   373.63   365.34   357.68   350.24   343.20   336.50   329.52   
 322.92   316.72   311.00   305.42   300.06   294.92   290.00   285.08   279.67   274.67   
 269.62   263.78   258.59   253.67   248.75   243.35   237.97   233.48   229.77   225.30   
 220.98   216.79   212.73   208.92   204.24   200.59   196.55   192.58   188.91   184.99   
 181.18   176.78   171.70   165.64   159.74   152.81   146.71   142.27   139.83   138.12   
 135.56   136.07   129.64   124.53   120.39   115.13   110.16   104.05   102.07   96.06    
 60.33    57.29    60.89    64.70    69.83    76.17    82.58    88.88    94.64    99.95    
 104.56   108.50   111.81   114.60   117.36   120.50   124.52   129.76   136.64   145.48   
 160.86   
333213.28 331033.34 326276.68 319838.40 312252.45 303506.33 292099.88 278483.36 262297.46 243336.24 
 222123.99 200122.86 178317.53 159106.02 142670.38 128647.20 117788.43 106952.87 96117.30 87378.54 
 79185.11 71878.08 65209.94 58757.66 52493.30 46517.88 40479.95 34934.52 29656.42 25011.30 
 21528.24 19087.02 17367.01 16114.50 15133.02 14299.50 13580.51 12971.74 12430.09 11958.60 
 11487.81 11017.02 10572.15 10152.11 9752.38  9366.77  9007.95  8678.47  8351.70  8059.02  
 7778.44  7490.64  7217.10  6948.62  6706.01  6488.64  6280.10  6062.62  5834.80  5593.35  
 5343.59  5099.36  4854.10  4611.29  4377.51  4138.08  3905.57  3670.65  3447.21  3222.21  
 3009.11  2799.79  2584.52  2373.53  2186.76  2006.77  1841.19  1684.77  1534.57  1392.22  
 1263.89  1155.73  1047.74  955.39   879.48   811.05   747.28   691.01   642.32   601.28   
 565.04   536.87   512.22   487.55   464.03   439.87   419.44   401.69   386.48   372.40   
 358.99   347.22   336.00   326.36   316.97   307.35   298.86   291.19   284.59   277.47   
 270.52   264.81   259.64   253.68   248.29   243.65   239.33   235.24   231.10   226.69   
 222.95   218.54   214.62   210.70   206.92   203.53   200.45   196.76   193.03   189.73   
 186.22   183.32   180.02   175.76   171.84   168.27   164.58   160.79   156.61   152.51   
 148.47   143.27   138.19   132.85   126.64   120.42   115.20   108.94   103.22   98.47    
 91.58    85.63    77.48    72.92    71.63    52.75    41.36    42.14    46.53    51.68    
 55.62    60.88    66.61    72.39    77.99    83.58    88.92    94.04    98.87    103.39   
 107.34   111.05   114.75   118.49   122.54   127.38   132.94   139.35   146.45   154.55   
 160.86   
333213.28 332943.17 330508.47 326482.78 321438.37 315826.44 310130.02 304131.55 296639.45 287396.19 
 275411.40 257251.06 239090.69 220900.41 200141.00 181289.41 163680.29 146828.81 131412.74 117312.22 
 103649.08 90554.13 78728.43 69305.99 61591.08 55621.95 50516.40 46257.60 42457.58 38811.80 
 35217.53 31756.49 28416.11 25374.93 22336.76 19570.59 17011.81 14830.58 13054.00 11685.71 
 10687.23 9963.81  9426.60  9015.68  8665.16  8359.02  8093.83  7857.74  7620.03  7383.97  
 7183.30  6993.42  6813.80  6635.85  6454.52  6269.91  6086.72  5882.45  5664.90  5433.78  
 5199.68  4956.95  4712.43  4454.91  4207.66  3976.27  3756.06  3544.08  3334.58  3126.36  
 2922.44  2736.15  2549.84  2361.18  2177.60  2004.84  1843.79  1689.42  1547.86  1413.13  
 1285.85  1168.71  1060.45  960.96   871.55   794.26   733.41   682.05   634.92   592.34   
 556.14   522.51   497.47   474.07   451.25   428.28   408.01   388.83   372.09   355.35   
 340.49   326.70   314.06   301.21   289.56   278.41   268.98   259.53   250.97   242.42   
 233.88   227.18   220.85   214.61   208.47   202.83   197.80   193.00   188.52   183.90   
 179.40   174.34   170.05   166.14   161.59   157.21   152.83   148.50   144.09   139.44   
 134.71   130.27   125.22   120.50   115.94   111.30   106.99   101.69   96.61    91.49    
 86.34    80.47    73.56    66.43    59.25    52.49    46.95    29.72    19.35    17.88    
 19.75    22.65    25.98    29.62    33.57    37.84    42.40    47.16    52.19    57.31    
 62.51    67.60    72.60    77.55    82.30    86.87    91.36    95.79    100.05   104.32   
 108.53   112.88   117.47   122.41   127.92   134.08   140.94   148.27   156.00   163.78   
 160.86   
333213.28 334293.83 333814.14 332060.37 329319.91 326010.99 322282.83 318063.11 313473.00 307375.73 
 298825.50 288586.46 276177.36 262285.65 246184.61 228397.43 209915.10 190768.26 171493.05 151363.42 
 130616.11 112270.04 93945.45 75620.86 64850.20 57215.28 51296.63 46770.16 42919.32 39416.06 
 36078.51 33063.30 30258.21 27507.79 24778.16 22300.71 19776.55 17471.61 15438.32 13718.01 
 12252.45 11111.06 9972.75  9187.64  8582.41  8086.26  7674.67  7334.66  7041.81  6794.68  
 6565.42  6350.08  6136.10  5934.48  5734.63  5518.73  5291.97  5061.01  4819.71  4560.60  
 4293.92  4040.67  3805.75  3590.35  3384.19  3189.24  2996.85  2816.85  2642.31  2473.99  
 2313.15  2162.67  2013.50  1869.29  1733.76  1607.37  1488.48  1376.66  1267.37  1170.50  
 1073.73  982.83   895.80   816.83   745.01   679.15   618.94   567.99   522.01   480.77   
 444.59   412.39   383.47   363.94   342.31   322.66   303.65   287.78   274.74   261.41   
 246.13   233.63   221.33   209.91   200.24   186.89   177.05   169.47   161.47   152.75   
 145.32   138.16   131.66   125.33   119.00   112.21   106.61   100.83   95.09    89.48    
 83.90    78.72    72.97    67.08    61.46    56.31    50.92    45.30    39.64    33.74    
 27.69    21.79    17.06    11.72    8.22     6.68     6.36     6.79     7.41     8.17     
 9.05     10.06    11.20    12.47    13.96    15.64    17.48    19.50    21.82    24.37    
 27.12    30.08    33.29    36.76    40.41    44.18    48.25    52.46    56.75    61.17    
 65.66    70.23    74.77    79.29    83.70    88.20    92.73    97.40    102.12   106.97   
 111.98   117.29   122.93   129.02   135.64   143.07   150.84   159.16   167.77   176.76   
 160.86   
333213.28 335906.85 337260.84 337388.53 336404.77 334543.17 331798.44 327227.94 319950.08 310029.67 
 298337.77 286171.42 272485.86 257798.92 241927.28 224565.76 205762.30 185305.95 162182.53 138799.16 
 117455.43 99631.81 81849.20 68765.83 57963.49 49505.23 42627.50 37192.95 33012.05 29141.63 
 26083.44 23443.34 21087.88 18973.92 16851.37 14838.39 12925.01 11190.56 9850.41  8514.30  
 7451.96  6651.60  6044.07  5556.46  5178.34  4862.43  4549.12  4311.02  4151.99  4005.70  
 3856.48  3670.83  3455.23  3203.64  2959.28  2702.37  2477.89  2273.34  2085.50  1905.51  
 1745.56  1586.64  1436.09  1306.72  1179.90  1069.99  960.29   858.09   765.52   681.36   
 603.28   530.09   465.97   408.29   355.21   308.80   267.20   229.84   199.12   170.87   
 147.24   125.14   107.83   90.57    77.70    67.09    57.04    47.18    18.63    5.26     
 4.53     3.56     3.26     3.23     3.21     3.21     3.24     3.30     3.37     3.46     
 3.55     3.67     3.79     3.93     4.07     4.23     4.41     4.59     4.79     5.00     
 5.23     5.46     5.70     5.96     6.23     6.50     6.78     7.07     7.37     7.68     
 8.01     8.35     8.71     9.10     9.52     9.97     10.44    11.01    11.65    12.37    
 13.15    14.03    15.00    16.06    17.28    18.69    20.26    22.08    24.13    26.44    
 29.14    32.36    36.11    40.41    45.26    50.65    56.60    63.28    70.60    78.41    
 86.58    95.31    104.31   113.46   122.83   132.07   141.23   150.34   159.38   168.11   
 176.54   184.58   192.18   199.34   205.94   211.89   217.20   221.78   225.55   228.72   
 231.88   232.91   232.96   232.01   230.14   227.52   223.90   219.57   214.36   208.20   
 160.86   
333213.28 336022.22 337400.26 337273.22 335912.48 333662.32 330477.31 325612.75 317339.65 305614.02 
 291744.27 273431.12 246279.05 219126.98 191990.63 166631.93 144684.35 126969.01 108615.36 89923.96 
 72470.62 58179.24 46865.21 37975.16 31290.92 24606.68 17957.00 15080.47 12953.53 11142.47 
 9552.47  7450.10  5994.43  5063.91  4325.87  3574.05  2844.48  2118.16  1749.77  1431.45  
 1033.74  840.43   703.52   603.53   511.51   429.18   355.05   291.90   246.34   200.90   
 168.59   143.35   126.39   111.76   97.45    83.69    74.07    66.06    58.98    53.74    
 49.15    44.90    40.89    38.05    35.70    33.67    31.85    29.92    27.67    25.82    
 24.65    24.16    23.98    24.07    24.30    24.71    24.98    24.92    24.94    24.84    
 24.57    23.80    22.45    20.23    16.39    11.00    6.03     2.60     2.48     2.55     
 2.61     2.68     2.75     2.85     2.97     3.10     3.23     3.37     3.53     3.69     
 3.87     4.05     4.26     4.47     4.71     4.96     5.21     5.48     5.76     6.04     
 6.34     6.65     6.98     7.30     7.62     7.97     8.34     8.71     9.09     9.48     
 9.91     10.39    10.87    11.37    11.89    12.47    13.10    13.79    14.54    15.37    
 16.32    17.34    18.48    19.73    21.09    22.66    24.43    26.42    28.62    31.22    
 34.26    37.68    41.64    46.13    51.14    56.86    63.13    69.92    77.26    85.23    
 93.57    102.23   110.98   120.50   130.02   139.25   148.52   157.24   166.22   174.81   
 183.15   191.12   198.57   205.77   212.30   218.31   223.74   228.54   232.41   235.48   
 237.41   238.49   238.31   236.96   234.71   231.24   226.64   221.04   214.33   206.39   
 160.86   
333213.28 335496.34 335559.29 333279.41 329235.19 323641.44 304478.55 277582.06 251093.39 227196.93 
 198273.51 168364.21 142732.10 110927.16 90481.53 70157.86 59414.76 41182.56 31824.22 26418.33 
 16080.22 12283.16 7645.04  2996.38  1930.65  1577.21  1305.39  1039.43  773.52   507.62   
 371.91   286.42   239.25   210.75   187.14   165.77   144.98   128.49   115.56   102.66   
 91.52    82.17    72.31    65.07    59.07    53.96    49.08    45.62    41.83    38.27    
 34.81    31.26    27.23    23.68    20.21    17.88    16.22    14.68    13.65    12.86    
 12.35    11.92    11.52    11.06    10.68    10.21    9.94     9.74     9.50     9.26     
 9.09     8.91     8.75     8.56     8.24     8.00     7.72     7.33     6.83     6.18     
 5.60     4.97     4.29     3.61     3.07     2.90     2.89     2.97     3.03     3.10     
 3.20     3.30     3.38     3.50     3.67     3.85     4.07     4.30     4.53     4.75     
 4.99     5.24     5.48     5.75     6.04     6.34     6.64     6.95     7.26     7.58     
 7.92     8.28     8.63     8.99     9.36     9.75     10.14    10.54    10.97    11.40    
 11.85    12.32    12.81    13.34    13.92    14.56    15.26    16.04    16.89    17.81    
 18.81    19.95    21.21    22.61    24.14    25.83    27.79    29.96    32.46    35.28    
 38.46    42.11    46.21    51.02    56.45    62.49    69.01    76.13    83.76    92.21    
 101.40   110.96   120.79   130.65   140.42   150.15   160.47   170.57   180.15   189.07   
 197.40   205.53   212.95   219.65   225.65   231.36   237.07   240.72   243.92   246.23   
 247.26   247.48   246.52   244.15   240.42   235.92   229.72   222.07   212.76   202.08   
 160.86   
333213.28 335315.54 334143.45 329718.58 319925.48 283587.22 250463.98 217357.74 185916.20 150412.69 
 112327.99 90893.18 67992.12 45175.44 35139.69 25103.94 15101.46 8605.59  2172.77  2052.80  
 1791.48  1401.21  1104.54  924.14   726.69   545.99   437.06   337.64   274.51   211.37   
 148.51   121.80   103.38   89.99    78.71    70.71    64.37    59.12    53.05    48.58    
 44.47    40.37    36.16    32.11    27.66    24.23    21.37    19.20    17.53    16.19    
 15.01    14.05    13.18    12.32    11.41    10.46    9.73     9.14     8.69     8.28     
 7.85     7.41     7.03     6.72     6.40     6.12     5.83     5.54     5.24     5.05     
 4.89     4.74     4.56     4.37     4.15     3.94     3.77     3.62     3.46     3.33     
 3.19     3.05     3.00     3.00     3.03     3.09     3.16     3.25     3.32     3.39     
 3.48     3.59     3.70     3.85     4.00     4.17     4.34     4.54     4.75     4.99     
 5.23     5.47     5.70     5.96     6.23     6.51     6.79     7.10     7.41     7.73     
 8.07     8.42     8.79     9.16     9.52     9.92     10.33    10.77    11.20    11.63    
 12.12    12.61    13.13    13.65    14.21    14.82    15.49    16.24    17.07    18.03    
 19.06    20.23    21.55    23.03    24.64    26.45    28.56    30.81    33.28    36.11    
 39.34    42.93    46.98    51.57    56.68    62.64    69.17    76.40    84.36    93.17    
 102.65   112.68   124.09   135.51   147.22   159.06   171.49   183.32   195.27   206.37   
 216.81   226.27   234.64   241.90   247.87   252.88   256.58   259.66   261.20   261.41   
 260.28   258.21   255.14   250.87   245.52   238.84   230.48   220.86   209.36   196.43   
 160.86   
333213.28 334347.02 331299.52 323930.49 286691.74 243374.14 204735.47 165295.28 116991.40 88871.29 
 60993.05 41695.45 24603.83 16142.21 8732.28  1332.57  1128.39  943.18   757.29   765.21   
 606.59   486.81   441.03   353.90   315.18   276.99   241.21   180.31   136.33   114.63   
 93.20    80.12    69.81    62.15    55.51    49.44    44.58    39.48    34.94    31.10    
 28.79    26.31    23.60    21.70    19.51    17.48    16.50    14.78    13.58    12.73    
 11.90    10.61    9.67     8.70     7.62     7.12     6.92     6.82     6.64     6.34     
 6.05     5.78     5.56     5.21     4.92     4.67     4.46     4.26     4.04     3.85     
 3.64     3.47     3.34     3.23     3.15     3.07     3.01     2.95     2.89     2.84     
 2.83     2.83     2.84     2.87     2.94     3.01     3.09     3.18     3.28     3.40     
 3.52     3.64     3.77     3.92     4.08     4.24     4.42     4.63     4.84     5.07     
 5.31     5.58     5.86     6.14     6.45     6.76     7.09     7.42     7.74     8.10     
 8.47     8.85     9.24     9.65     10.07    10.50    10.95    11.39    11.86    12.35    
 12.83    13.32    13.81    14.36    14.91    15.49    16.10    16.76    17.44    18.21    
 19.08    20.05    21.21    22.56    24.10    25.80    27.81    30.06    32.61    35.44    
 38.60    42.10    46.12    50.75    55.94    61.75    68.20    75.39    83.41    92.63    
 102.80   113.62   125.11   137.05   149.55   163.21   177.11   191.15   204.96   218.64   
 231.56   244.48   254.42   262.83   269.47   274.21   277.13   278.23   277.73   275.88   
 272.57   267.61   261.14   253.52   244.93   235.17   224.07   212.06   198.42   183.30   
 160.86   
333213.28 334137.26 330936.66 322377.49 277491.44 232605.35 187671.85 137946.30 92988.59 68148.58 
 40904.93 34099.00 27293.07 20487.14 13681.21 6875.27  132.99   99.04    75.42    65.08    
 55.93    47.90    41.36    36.73    32.57    28.85    26.00    23.84    22.38    21.14    
 20.73    20.04    19.42    18.50    16.85    14.18    12.33    11.18    10.12    9.18     
 8.37     7.81     8.09     8.86     9.10     8.96     8.81     8.59     8.11     7.74     
 7.31     7.09     6.78     6.50     6.25     5.93     5.73     5.56     5.35     5.14     
 4.96     4.76     4.55     4.42     4.29     4.11     3.99     3.87     3.78     3.62     
 3.50     3.42     3.35     3.23     3.18     3.16     3.14     3.10     3.10     3.11     
 3.13     3.15     3.17     3.21     3.26     3.33     3.39     3.45     3.51     3.60     
 3.70     3.78     3.85     3.95     4.06     4.20     4.35     4.54     4.76     5.00     
 5.27     5.53     5.83     6.16     6.51     6.87     7.24     7.60     7.97     8.34     
 8.71     9.09     9.48     9.85     10.25    10.67    11.15    11.64    12.13    12.63    
 13.17    13.72    14.32    14.91    15.54    16.16    16.84    17.55    18.28    19.04    
 19.86    20.74    21.68    22.74    23.90    25.30    26.98    28.87    31.13    33.69    
 36.65    39.98    43.69    47.89    52.64    58.17    64.31    71.22    79.11    88.20    
 98.54    109.93   123.27   136.63   151.06   166.14   181.87   197.65   213.90   229.71   
 245.17   259.31   271.76   282.41   290.36   295.95   298.89   299.35   297.55   293.70   
 288.20   281.47   272.61   262.14   249.85   237.33   223.64   209.43   194.52   178.60   
 160.86   
333213.28 333446.43 329513.05 320166.89 274372.08 226778.25 181302.77 130416.56 95479.76 60737.89 
 39336.59 20052.19 6961.22  895.90   746.37   659.16   548.21   294.00   125.62   86.12    
 48.18    36.74    29.35    24.12    20.44    17.74    15.52    13.73    12.48    11.36    
 10.64    11.09    11.03    11.05    10.15    9.55     8.85     7.82     6.96     6.29     
 6.08     5.86     5.57     5.35     5.11     4.96     5.04     5.03     4.63     4.34     
 4.19     4.10     4.09     4.09     4.24     4.28     4.16     4.06     4.06     4.05     
 4.04     4.04     4.03     4.03     4.00     4.00     3.97     3.95     3.93     3.93     
 3.93     3.93     3.93     3.93     3.93     3.93     3.93     3.93     3.93     3.93     
 3.92     3.88     3.88     3.97     4.23     4.44     4.56     4.67     4.72     4.77     
 4.82     4.90     4.95     4.95     4.96     4.98     5.08     5.21     5.39     5.60     
 5.86     6.14     6.46     6.82     7.20     7.60     7.99     8.38     8.76     9.14     
 9.51     9.85     10.21    10.56    10.94    11.37    11.81    12.29    12.79    13.37    
 13.94    14.56    15.19    15.87    16.58    17.34    18.10    18.93    19.81    20.73    
 21.68    22.65    23.66    24.67    25.77    27.09    28.64    30.48    32.63    35.14    
 37.95    41.22    44.96    49.13    53.82    59.17    65.32    72.40    80.27    89.79    
 100.69   112.88   126.41   140.53   156.16   172.50   189.03   205.61   222.40   239.21   
 256.01   270.80   283.67   294.01   301.79   306.35   307.96   306.55   302.37   296.04   
 287.95   278.33   267.26   255.68   243.46   230.89   218.00   205.08   191.84   177.40   
 160.86   
