IESNA:LM-63-2002
[TEST] 1
[TESTLAB] AOK
[TESTDATE] 2022-06-09
[ISSUEDATE] 2022-06-09 18:45:52
[NEARFIELD] 
[LAMPPOSITION] 0,0
[OTHER] EVERFINE GO-2000A_V1 SYSTEM
[MANUFAC] AOK
[LUMCAT] A
[LUMINAIRE] AOK-400WiSF-NV-S35-00-5070-2030D-P
[LAMPCAT] B
[LAMP] 3535
[BALLAST] E
[BALLASTCAT] F
[OTHER] 
[OTHER] Gamma(deg)    Fz(lm)      Ft(lm)     %Lum    %Lamp
[OTHER]   0- 10     15793.83    15793.83    30.49    30.49
[OTHER]  10- 20     17882.29    33676.12    65.02    65.02
[OTHER]  20- 30      7449.07    41125.19    79.40    79.40
[OTHER]  30- 40      3891.07    45016.26    86.91    86.91
[OTHER]  40- 50      2432.46    47448.73    91.61    91.61
[OTHER]  50- 60      1806.34    49255.07    95.09    95.09
[OTHER]  60- 70      1208.43    50463.50    97.43    97.43
[OTHER]  70- 80       588.41    51051.90    98.56    98.56
[OTHER]  80- 90       241.62    51293.52    99.03    99.03
[OTHER]  90-100       126.65    51420.17    99.27    99.27
[OTHER] 100-110        90.91    51511.08    99.45    99.45
[OTHER] 110-120        73.50    51584.58    99.59    99.59
[OTHER] 120-130        55.87    51640.45    99.70    99.70
[OTHER] 130-140        41.21    51681.66    99.78    99.78
[OTHER] 140-150        35.01    51716.67    99.84    99.84
[OTHER] 150-160        37.83    51754.50    99.92    99.92
[OTHER] 160-170        31.12    51785.62    99.98    99.98
[OTHER] 170-180        11.43    51797.05   100.00   100.00
[OTHER] 
TILT=NONE
1 51797 1 181 25 1 2 0.150 0.200 0.000
1.000 1 402.484
0.0    1.0    2.0    3.0    4.0    5.0    6.0    7.0    8.0    9.0    
 10.0   11.0   12.0   13.0   14.0   15.0   16.0   17.0   18.0   19.0   
 20.0   21.0   22.0   23.0   24.0   25.0   26.0   27.0   28.0   29.0   
 30.0   31.0   32.0   33.0   34.0   35.0   36.0   37.0   38.0   39.0   
 40.0   41.0   42.0   43.0   44.0   45.0   46.0   47.0   48.0   49.0   
 50.0   51.0   52.0   53.0   54.0   55.0   56.0   57.0   58.0   59.0   
 60.0   61.0   62.0   63.0   64.0   65.0   66.0   67.0   68.0   69.0   
 70.0   71.0   72.0   73.0   74.0   75.0   76.0   77.0   78.0   79.0   
 80.0   81.0   82.0   83.0   84.0   85.0   86.0   87.0   88.0   89.0   
 90.0   91.0   92.0   93.0   94.0   95.0   96.0   97.0   98.0   99.0   
 100.0  101.0  102.0  103.0  104.0  105.0  106.0  107.0  108.0  109.0  
 110.0  111.0  112.0  113.0  114.0  115.0  116.0  117.0  118.0  119.0  
 120.0  121.0  122.0  123.0  124.0  125.0  126.0  127.0  128.0  129.0  
 130.0  131.0  132.0  133.0  134.0  135.0  136.0  137.0  138.0  139.0  
 140.0  141.0  142.0  143.0  144.0  145.0  146.0  147.0  148.0  149.0  
 150.0  151.0  152.0  153.0  154.0  155.0  156.0  157.0  158.0  159.0  
 160.0  161.0  162.0  163.0  164.0  165.0  166.0  167.0  168.0  169.0  
 170.0  171.0  172.0  173.0  174.0  175.0  176.0  177.0  178.0  179.0  
 180.0  
0.0    15.0   30.0   45.0   60.0   75.0   90.0   105.0  120.0  135.0  
 150.0  165.0  180.0  195.0  210.0  225.0  240.0  255.0  270.0  285.0  
 300.0  315.0  330.0  345.0  360.0  
211443.42 210234.22 207881.70 202823.50 189971.68 152148.70 124614.83 99943.40 71588.85 54001.60 
 33603.49 23555.13 14324.50 9578.58  4881.55  184.52   97.22    56.83    44.84    33.69    
 28.34    23.63    19.61    17.06    14.92    13.65    12.59    11.23    10.25    9.64     
 9.18     8.86     8.51     7.90     6.88     6.11     5.74     5.63     5.52     5.42     
 5.48     5.56     5.44     5.06     4.90     4.70     4.68     4.84     4.93     4.76     
 4.59     4.43     4.37     4.35     4.32     4.31     4.28     4.12     4.02     3.92     
 3.81     3.73     3.59     3.41     3.29     3.17     3.04     2.89     2.79     2.69     
 2.63     2.56     2.49     2.44     2.41     2.37     2.37     2.37     2.37     2.39     
 2.44     2.47     2.51     2.57     2.69     2.88     3.00     3.12     3.21     3.27     
 3.35     3.41     3.50     3.53     3.54     3.55     3.59     3.66     3.76     3.90     
 4.07     4.26     4.46     4.69     4.94     5.22     5.50     5.78     6.05     6.32     
 6.59     6.87     7.16     7.43     7.71     8.01     8.37     8.73     9.12     9.55     
 10.01    10.49    11.00    11.51    12.09    12.70    13.37    14.06    14.78    15.53    
 16.32    17.15    18.00    18.89    19.83    20.85    22.00    23.37    24.94    26.68    
 28.67    30.88    33.31    36.16    39.31    42.91    46.92    51.50    56.72    62.99    
 70.40    78.62    87.66    97.24    106.93   117.02   127.99   139.22   150.02   160.41   
 170.31   179.87   188.74   195.75   201.04   204.58   206.30   206.11   204.23   200.85   
 196.29   190.48   183.98   176.75   169.38   161.39   153.50   145.62   136.96   127.45   
 114.45   
211443.42 211145.49 209433.70 205853.52 199686.14 172567.45 138839.99 115418.61 91683.04 65017.86 
 51201.86 41134.95 31068.04 21001.13 10934.21 959.10   916.95   714.47   522.49   330.51   
 140.21   168.24   173.18   125.18   115.24   119.25   103.86   64.27    58.16    46.38    
 28.63    19.27    16.54    14.09    12.31    10.41    8.77     7.60     6.89     6.31     
 5.89     5.61     5.47     5.46     5.36     5.12     4.90     4.73     4.56     4.36     
 4.12     3.94     3.80     3.64     3.51     3.40     3.27     3.15     3.03     2.92     
 2.82     2.73     2.64     2.56     2.49     2.44     2.39     2.35     2.32     2.28     
 2.24     2.20     2.14     2.10     2.07     2.04     2.03     2.02     2.03     2.03     
 2.04     2.06     2.09     2.13     2.18     2.23     2.29     2.35     2.41     2.48     
 2.55     2.64     2.74     2.83     2.93     3.06     3.19     3.33     3.49     3.66     
 3.84     4.04     4.25     4.49     4.73     4.97     5.23     5.49     5.74     6.01     
 6.27     6.54     6.82     7.12     7.43     7.75     8.11     8.49     8.89     9.33     
 9.82     10.35    10.89    11.44    12.02    12.64    13.29    14.00    14.72    15.48    
 16.26    17.08    17.93    18.81    19.80    20.91    22.17    23.61    25.24    27.06    
 29.13    31.50    34.04    36.90    40.05    43.75    47.90    52.63    58.13    64.52    
 71.69    79.84    88.50    97.93    107.87   118.10   128.61   138.96   149.52   159.78   
 169.71   179.08   187.15   193.86   198.74   201.75   202.99   202.51   200.39   196.92   
 192.31   186.55   180.28   173.42   166.19   159.15   150.60   142.14   133.55   124.59   
 114.45   
211443.42 211637.01 210239.12 207889.47 203805.69 195431.55 163925.11 135527.17 112565.13 91240.75 
 65553.36 53084.62 35425.04 27260.54 16598.68 6997.75  4084.05  1238.27  1083.35  962.02   
 814.64   477.12   296.85   221.38   237.65   203.13   188.06   143.23   115.48   87.94    
 77.26    76.34    60.30    51.24    43.25    37.09    33.46    28.06    25.20    21.57    
 18.81    16.59    15.55    14.96    14.12    12.83    12.16    10.94    10.38    9.40     
 8.52     7.78     7.02     6.08     5.51     5.19     4.95     4.70     4.39     4.07     
 3.78     3.51     3.30     3.17     3.05     2.92     2.76     2.59     2.45     2.34     
 2.26     2.18     2.12     2.08     2.04     2.01     1.97     1.93     1.89     1.87     
 1.88     1.90     1.91     1.93     1.94     2.00     2.07     2.14     2.22     2.31     
 2.41     2.52     2.64     2.77     2.91     3.05     3.21     3.38     3.54     3.72     
 3.91     4.10     4.29     4.48     4.69     4.90     5.13     5.35     5.60     5.85     
 6.13     6.41     6.72     7.04     7.38     7.73     8.09     8.48     8.90     9.33     
 9.78     10.23    10.74    11.24    11.78    12.33    12.94    13.59    14.28    15.02    
 15.83    16.70    17.68    18.74    20.01    21.45    23.02    24.74    26.68    28.82    
 31.15    33.84    36.85    40.27    44.04    48.26    53.05    58.47    64.66    71.34    
 78.63    86.61    94.98    103.77   112.99   122.38   131.86   141.59   151.23   160.53   
 169.00   176.50   182.76   187.67   191.18   193.20   193.71   192.82   190.69   187.41   
 183.09   178.59   172.98   166.66   160.18   153.30   146.13   138.91   131.60   124.39   
 114.45   
211443.42 212348.16 211616.28 210296.96 208001.02 202917.67 195174.99 175569.75 146879.35 124809.45 
 103778.60 86989.07 66338.77 51309.69 42929.20 33435.61 23942.02 14511.45 11531.77 6543.47  
 1591.79  1402.36  995.98   690.28   472.68   363.80   274.80   186.20   141.30   115.22   
 97.23    84.44    74.68    66.58    60.05    53.99    48.54    43.65    38.84    35.01    
 31.50    28.61    26.09    23.46    20.86    17.64    15.51    14.00    12.88    11.92    
 11.04    10.30    9.58     8.93     8.22     7.67     7.19     6.79     6.39     6.04     
 5.72     5.43     5.12     4.83     4.57     4.36     4.17     3.98     3.77     3.57     
 3.36     3.14     2.94     2.76     2.59     2.44     2.30     2.16     2.05     1.95     
 1.83     1.74     1.74     1.75     1.79     1.85     1.92     2.00     2.09     2.19     
 2.28     2.40     2.51     2.63     2.77     2.91     3.05     3.20     3.36     3.53     
 3.69     3.87     4.05     4.25     4.47     4.69     4.91     5.15     5.40     5.65     
 5.91     6.20     6.49     6.79     7.11     7.44     7.77     8.11     8.48     8.86     
 9.27     9.72     10.20    10.71    11.23    11.81    12.44    13.15    13.93    14.78    
 15.75    16.83    18.02    19.31    20.73    22.34    24.13    26.09    28.27    30.68    
 33.46    36.53    39.95    43.75    48.03    52.80    58.00    63.67    69.80    76.51    
 83.64    91.18    98.94    107.30   115.80   124.33   132.81   140.81   148.70   155.84   
 162.29   167.91   172.61   176.37   178.98   180.56   181.07   180.56   179.48   176.78   
 173.39   169.64   165.61   161.05   156.14   150.89   145.31   139.63   134.12   128.60   
 114.45   
211443.42 212387.34 212175.64 210826.43 207912.38 202580.14 194883.04 187844.62 179437.73 168456.76 
 151519.69 127353.47 105874.26 93056.92 77297.55 63514.34 54194.80 41000.01 30645.29 23990.34 
 18600.41 11940.15 9711.48  7533.87  5019.10  4217.77  1984.28  1510.59  1055.07  599.55   
 425.55   315.80   236.85   190.57   158.30   134.24   114.64   95.09    81.59    69.92    
 60.21    52.24    45.46    40.34    35.79    31.96    28.94    26.23    23.99    22.00    
 19.97    18.21    16.56    14.72    12.93    11.27    10.26    9.58     8.96     8.44     
 8.05     7.77     7.51     7.24     7.00     6.80     6.59     6.41     6.25     6.08     
 5.93     5.76     5.58     5.35     5.09     4.81     4.46     4.08     3.70     3.29     
 2.91     2.47     2.05     1.93     1.92     1.95     2.01     2.08     2.17     2.25     
 2.35     2.45     2.56     2.68     2.82     2.95     3.10     3.26     3.43     3.60     
 3.78     3.98     4.18     4.39     4.61     4.84     5.07     5.32     5.57     5.83     
 6.09     6.36     6.64     6.93     7.23     7.56     7.88     8.23     8.60     8.99     
 9.41     9.84     10.35    10.85    11.44    12.06    12.81    13.58    14.44    15.39    
 16.40    17.50    18.73    20.11    21.66    23.34    25.29    27.46    29.93    32.71    
 35.86    39.50    43.45    47.81    52.57    57.68    63.19    69.17    75.50    82.10    
 89.00    96.10    103.21   110.51   117.85   124.98   131.84   138.43   144.64   150.30   
 155.42   159.82   163.56   166.57   168.89   170.39   171.14   171.72   171.09   169.69   
 167.67   164.89   161.82   158.41   154.91   151.04   147.02   142.77   138.38   133.54   
 114.45   
211443.42 212311.46 212437.91 211594.39 208716.42 203450.07 196488.24 189946.45 181718.39 173265.93 
 164392.72 155106.20 143369.75 131348.80 118299.31 105272.96 92118.89 78748.81 67299.17 55305.42 
 45717.55 36322.38 30774.46 25226.53 19704.56 17173.38 14772.73 12243.70 10509.14 8999.68  
 7890.55  6658.39  5273.45  4219.88  3388.38  2827.03  2266.83  1836.54  1474.35  1241.56  
 1048.55  849.73   695.44   564.89   448.59   360.61   304.73   248.85   193.09   149.73   
 118.03   94.86    77.16    64.08    54.44    46.42    40.73    35.94    31.98    28.84    
 26.14    24.09    22.50    21.14    19.81    18.77    17.59    16.51    15.39    14.37    
 13.88    13.61    13.41    13.25    13.08    12.91    12.70    12.49    12.25    11.76    
 10.71    9.05     6.86     4.39     1.70     1.59     1.64     1.70     1.76     1.83     
 1.89     1.97     2.06     2.16     2.26     2.38     2.50     2.63     2.78     2.94     
 3.10     3.27     3.45     3.63     3.84     4.05     4.26     4.49     4.73     4.98     
 5.24     5.52     5.78     6.07     6.38     6.70     7.02     7.35     7.70     8.08     
 8.50     8.98     9.48     10.00    10.56    11.17    11.85    12.61    13.42    14.30    
 15.31    16.40    17.59    18.91    20.44    22.15    24.13    26.40    28.91    31.80    
 35.13    38.81    42.85    47.27    52.04    57.24    62.75    68.49    74.45    80.72    
 87.05    93.53    99.80    106.32   112.72   118.94   125.15   130.97   136.79   142.17   
 147.23   151.86   156.09   160.00   163.28   166.09   168.72   170.26   171.06   171.24   
 170.72   169.58   167.70   165.24   162.30   159.08   155.73   151.89   147.63   142.78   
 114.45   
211443.42 211990.56 211999.79 211162.09 208513.37 203686.75 197114.80 190655.16 183092.97 174698.92 
 166006.97 156955.55 147035.46 136624.25 123938.19 109484.94 93755.90 79517.04 67052.71 56496.89 
 47405.40 40057.49 34195.44 29742.69 26177.90 23468.14 20763.58 18499.07 16749.24 15204.89 
 13762.07 12325.81 10954.30 9672.23  8461.07  7416.72  6446.83  5687.14  5101.57  4607.80  
 4224.42  3929.70  3682.25  3445.81  3251.57  3120.65  2982.09  2868.95  2734.97  2561.35  
 2387.74  2213.95  2026.74  1863.89  1711.82  1575.72  1443.71  1328.63  1220.98  1116.14  
 1025.27  936.41   854.99   778.11   708.10   644.16   584.39   527.04   475.27   425.14   
 380.51   339.97   302.88   268.57   239.09   209.61   180.20   157.06   138.20   120.77   
 104.95   90.91    78.83    68.26    58.31    33.20    24.20    18.36    11.77    7.05     
 3.02     1.50     1.27     1.20     1.13     1.06     1.00     0.93     0.86     0.87     
 0.87     0.87     0.88     0.88     0.88     0.89     0.91     0.93     0.96     0.99     
 1.01     1.04     1.07     1.11     1.14     1.17     1.20     1.24     1.29     1.33     
 1.38     1.43     1.50     1.56     1.64     1.73     1.82     1.93     2.05     2.19     
 2.33     2.51     2.70     2.92     3.16     3.44     3.76     4.15     4.58     5.10     
 5.65     6.26     6.94     7.70     8.51     9.42     10.40    11.40    12.49    13.62    
 14.75    15.93    17.15    18.44    19.74    21.08    22.52    24.03    25.69    27.39    
 29.17    31.07    33.04    35.21    37.50    40.06    42.80    46.35    49.60    53.78    
 58.16    63.02    68.48    74.41    80.67    87.13    93.76    100.59   106.99   113.40   
 114.45   
211443.42 212028.48 211889.99 210769.66 208096.35 203790.64 197449.40 190952.74 184003.32 176394.81 
 167477.86 158078.72 146931.74 135269.15 122411.79 109262.35 95676.59 82569.59 70189.57 59095.69 
 49376.16 41995.37 36423.75 32404.17 28970.12 26030.58 23837.37 21979.13 20163.41 18509.82 
 16959.37 15424.95 13886.89 12424.10 11067.41 9890.56  8715.19  7755.64  6963.09  6357.17  
 5852.23  5461.53  5137.53  4867.92  4640.41  4454.11  4273.88  4116.61  3969.09  3840.35  
 3714.78  3582.41  3440.44  3296.09  3133.40  2969.02  2802.71  2635.25  2473.89  2319.07  
 2175.38  2047.03  1927.59  1817.01  1709.57  1605.20  1503.92  1406.87  1312.14  1220.10  
 1134.58  1054.44  974.34   898.82   825.72   760.40   700.05   639.98   584.89   533.09   
 486.30   442.79   402.23   366.07   334.27   303.63   277.15   255.14   236.66   220.52   
 206.41   191.37   178.66   167.17   156.88   146.47   137.66   130.19   122.73   115.99   
 109.26   103.07   98.30    93.59    89.21    85.53    82.04    78.29    75.60    73.09    
 70.46    68.12    65.76    63.06    60.38    58.02    55.36    53.16    51.02    48.96    
 46.76    44.34    42.12    39.91    37.53    35.01    31.92    28.84    25.31    20.87    
 17.01    12.54    8.97     6.79     5.30     4.12     3.14     3.00     3.25     3.66     
 4.13     4.65     5.21     5.88     6.62     7.43     8.28     9.18     10.14    11.15    
 12.18    13.23    14.30    15.39    16.49    17.59    18.77    19.97    21.19    22.49    
 23.82    25.25    26.80    28.48    30.26    32.23    34.42    37.01    40.02    44.16    
 47.92    53.39    59.11    65.42    72.31    79.84    87.63    95.58    103.28   110.99   
 114.45   
211443.42 211903.98 211289.23 209771.27 207321.96 203830.00 198965.62 192989.19 185902.94 176884.53 
 166081.15 153281.75 139519.20 125303.08 111630.85 98942.66 86892.37 75053.86 64558.73 55603.98 
 48280.32 42317.20 37742.76 33972.76 30863.56 28252.32 25971.62 23792.79 21615.16 19536.45 
 17590.61 15685.02 13859.31 12165.13 10738.05 9470.23  8443.27  7594.63  6953.79  6486.21  
 6129.08  5825.26  5572.67  5353.42  5161.97  4990.72  4818.02  4655.65  4513.15  4376.58  
 4248.59  4124.80  3994.78  3863.11  3725.54  3577.84  3427.29  3264.95  3090.95  2916.36  
 2757.15  2618.72  2480.30  2342.00  2213.93  2084.90  1958.67  1835.26  1714.06  1599.39  
 1485.32  1372.45  1269.64  1172.57  1080.15  988.72   900.79   818.70   743.61   673.55   
 607.43   546.02   491.05   443.79   401.13   365.52   336.00   311.01   289.83   272.97   
 257.72   243.27   228.83   214.42   203.61   194.19   185.17   176.91   169.24   162.02   
 155.84   149.91   144.52   139.53   135.33   131.00   127.33   123.84   120.58   117.66   
 115.07   112.77   110.44   107.98   105.80   103.50   101.50   99.44    97.63    95.74    
 93.79    92.19    90.64    88.76    86.97    85.16    83.07    81.14    79.28    77.36    
 75.63    73.64    71.84    70.03    68.25    66.27    63.92    61.28    58.90    56.24    
 52.96    49.42    46.77    43.53    40.10    36.32    33.86    24.68    12.79    10.30    
 9.89     10.76    11.97    13.25    14.56    15.90    17.25    18.62    20.03    21.45    
 22.90    24.32    25.75    27.31    28.92    30.65    32.54    34.65    36.99    39.85    
 43.44    47.92    53.46    59.44    66.93    75.03    83.85    93.04    102.42   111.79   
 114.45   
211443.42 211274.81 209758.31 207483.14 204418.77 200532.45 195312.64 187429.58 176533.94 162133.71 
 145726.38 128945.47 113777.83 100346.13 89230.77 79273.25 70871.19 63379.93 56425.23 50554.68 
 45331.71 40975.11 36892.24 33171.71 29532.50 26168.01 22848.77 19742.02 17034.78 14671.53 
 12827.62 11680.72 10721.80 9764.52  9159.82  8633.51  8164.18  7756.44  7371.66  7029.97  
 6709.32  6385.30  6101.67  5848.95  5606.43  5390.17  5198.33  5011.07  4823.44  4641.37  
 4445.97  4285.60  4141.81  4006.51  3870.10  3725.35  3579.34  3438.07  3292.09  3152.02  
 3002.47  2857.21  2718.32  2582.27  2451.01  2315.42  2181.39  2048.16  1917.71  1784.12  
 1649.30  1534.33  1420.22  1304.22  1194.94  1091.97  989.06   892.78   807.06   729.76   
 658.08   593.03   532.70   479.68   435.40   398.12   365.42   337.81   316.05   299.51   
 284.38   268.79   254.69   242.57   231.88   222.98   215.13   208.40   202.62   197.53   
 192.79   188.30   184.47   181.02   177.87   174.90   172.06   169.56   167.10   164.90   
 162.71   160.55   158.23   156.20   154.05   152.24   150.26   148.37   146.47   144.71   
 142.77   140.45   138.08   135.62   133.42   131.44   129.46   126.74   124.01   121.29   
 118.73   116.29   113.56   110.96   108.21   105.46   102.94   100.13   97.26    94.56    
 91.90    88.74    86.48    84.27    81.84    79.57    75.65    72.16    68.86    65.99    
 62.43    56.73    52.44    50.46    48.37    33.82    20.96    19.77    20.80    21.40    
 21.73    23.11    24.95    26.92    28.97    31.16    33.20    35.30    37.69    40.31    
 43.33    46.91    51.26    56.61    62.81    70.13    79.05    88.90    99.52    109.90   
 114.45   
211443.42 211025.83 208990.35 206002.84 202278.21 197277.91 188934.69 176942.63 161164.59 143417.26 
 125538.11 109390.01 96198.53 85675.04 76426.14 68495.42 62210.20 56589.11 51714.83 47261.89 
 42731.59 38007.43 33263.95 28569.80 24751.31 20948.50 18490.80 16775.18 15557.13 14570.01 
 13728.18 12955.19 12280.55 11661.04 11102.10 10516.97 9951.68  9406.91  8905.92  8451.86  
 8009.52  7608.87  7231.10  6884.35  6554.13  6233.78  5937.86  5677.66  5425.56  5181.68  
 4956.31  4740.28  4535.36  4355.44  4188.83  4038.76  3899.07  3756.60  3616.30  3490.57  
 3379.26  3235.37  3075.76  2907.79  2741.83  2575.87  2410.07  2259.29  2114.69  1962.72  
 1807.77  1663.08  1533.93  1414.23  1289.35  1181.32  1079.03  981.56   890.59   806.70   
 731.12   659.15   592.96   539.04   492.10   452.03   417.36   388.90   364.81   346.01   
 329.36   312.62   295.91   281.12   269.29   259.34   251.60   245.38   239.82   234.30   
 231.28   228.50   226.03   224.11   222.52   221.44   220.73   220.12   219.48   218.96   
 218.36   217.89   217.09   216.21   215.28   213.53   211.06   208.21   204.97   201.37   
 197.19   192.78   188.13   183.67   179.36   175.10   171.07   167.19   163.43   159.81   
 156.35   152.67   149.01   145.65   142.23   138.72   135.02   131.41   127.44   122.94   
 117.34   112.32   106.66   102.50   98.67    96.12    93.65    92.10    90.57    88.33    
 86.99    83.87    79.43    76.63    73.76    71.52    64.23    62.05    60.06    47.59    
 25.08    25.39    26.70    28.35    30.40    33.01    36.00    39.03    41.89    44.53    
 47.28    50.17    53.39    57.23    62.01    68.01    75.42    84.80    95.56    106.65   
 114.45   
211443.42 210153.90 207270.06 203448.89 198459.38 190455.29 177773.52 160514.67 141529.63 122880.63 
 106190.20 93088.81 82906.67 74301.35 67465.79 61833.13 56967.65 52517.96 48379.99 43553.61 
 38209.04 32843.77 27946.31 24157.01 21641.46 20064.81 18999.95 18113.58 17357.90 16671.43 
 16049.57 15488.27 14887.55 14310.46 13641.57 12923.89 12261.84 11604.84 10947.88 10290.92 
 9687.58  9119.61  8595.33  8099.81  7625.24  7188.55  6796.80  6422.46  6086.41  5779.47  
 5499.08  5244.46  5028.56  4841.81  4714.49  4646.49  4651.59  4669.89  4741.84  4586.59  
 4365.42  4126.96  3868.69  3651.54  3397.92  3163.81  2940.02  2689.15  2429.12  2180.38  
 2001.11  1847.15  1687.32  1550.90  1424.44  1308.20  1205.43  1102.16  998.88   911.22   
 825.96   749.36   680.31   621.74   569.90   526.53   486.96   454.31   428.10   406.79   
 386.79   366.67   345.76   327.82   312.52   299.55   288.83   280.61   274.08   269.18   
 265.34   262.60   260.79   259.59   258.80   258.40   258.44   258.57   257.79   256.64   
 255.59   254.66   254.13   253.73   253.03   252.06   250.35   248.16   245.39   241.22   
 236.82   231.94   226.35   220.54   214.51   208.57   202.32   196.33   190.75   185.55   
 180.53   175.73   170.88   166.21   161.72   157.32   153.09   142.57   136.16   132.61   
 128.77   124.92   121.69   117.68   113.54   109.90   106.17   102.59   99.16    95.40    
 92.44    89.68    88.62    86.68    81.66    80.77    79.42    77.35    71.76    67.86    
 63.16    36.28    29.75    32.34    35.08    38.23    41.90    45.64    49.24    52.55    
 55.42    58.16    60.69    63.07    65.90    70.27    76.11    84.64    94.90    106.04   
 114.45   
211443.42 209932.83 206694.66 202384.51 196367.31 186603.47 172455.21 153674.83 132883.22 112738.64 
 96825.63 85961.63 77345.77 70323.82 64616.16 60009.15 55769.73 51712.28 47433.44 42467.29 
 36841.50 31369.56 28244.35 25119.14 22016.59 20890.95 20049.28 19296.00 18683.03 18193.73 
 17641.51 17112.33 16511.48 15801.94 15066.43 14303.32 13477.28 12667.27 11872.09 11157.82 
 10471.51 9809.23  9173.39  8627.92  8107.94  7647.47  7225.39  6812.37  6443.76  6111.72  
 5809.29  5564.88  5340.84  5150.62  4999.05  5122.26  5325.04  5353.78  5409.04  5288.81  
 4928.72  4660.98  4259.58  4037.50  3808.47  3515.96  3255.45  2937.85  2654.06  2371.20  
 2169.51  1978.84  1814.69  1673.62  1539.17  1411.52  1290.99  1174.42  1075.90  982.94   
 892.83   810.30   738.19   673.25   617.67   568.67   526.76   490.25   460.72   435.78   
 413.75   391.75   369.47   349.67   331.30   316.07   303.16   292.72   284.60   277.83   
 272.57   269.03   266.29   264.43   262.97   261.78   260.85   260.31   258.97   257.15   
 254.71   252.10   250.07   248.43   246.64   243.96   241.29   238.61   235.72   232.22   
 227.60   223.05   218.27   213.02   207.62   201.98   196.41   191.01   185.92   181.01   
 176.28   171.56   166.92   162.34   157.90   153.63   149.27   144.86   133.92   128.11   
 124.86   121.77   118.60   115.28   112.01   108.85   105.69   102.77   100.02   97.55    
 94.66    93.09    91.72    90.63    89.84    89.04    88.05    86.89    83.92    73.41    
 70.30    65.76    35.38    37.74    40.96    44.81    48.98    53.43    57.55    61.39    
 64.61    67.50    69.92    71.88    73.82    76.53    80.37    86.34    94.61    104.98   
 114.45   
211443.42 209229.39 205563.93 200926.12 194533.19 184443.48 169493.05 151010.75 131151.15 112558.35 
 97196.67 86234.19 77590.49 70761.18 65065.27 60497.24 56257.54 52101.71 47938.60 43621.60 
 38307.25 33056.65 28280.60 24566.07 22400.38 20976.90 20033.57 19278.44 18684.44 18181.05 
 17642.10 17106.85 16458.27 15723.61 14931.49 14146.99 13374.73 12562.01 11822.98 11084.51 
 10346.03 9681.40  9076.98  8498.15  7986.06  7516.85  7102.63  6702.43  6324.94  6005.17  
 5692.45  5428.55  5211.08  5009.65  4845.30  4754.77  4826.27  4833.45  4791.19  4626.47  
 4375.31  4126.22  3917.90  3678.40  3481.67  3314.08  3035.92  2767.03  2497.00  2274.61  
 2103.97  1953.48  1788.37  1641.16  1507.25  1383.32  1265.63  1160.48  1055.44  965.29   
 880.08   801.94   730.01   665.30   609.47   562.16   521.08   485.05   455.65   431.70   
 410.01   388.34   367.46   348.05   330.91   315.87   302.83   292.50   283.53   276.46   
 270.21   265.30   261.32   257.66   254.27   250.70   247.72   244.42   240.64   236.67   
 232.61   228.73   225.30   221.91   218.61   215.44   212.14   208.54   204.75   200.21   
 196.10   192.00   187.77   183.57   179.60   175.59   171.49   167.48   163.78   160.30   
 156.96   153.21   149.78   146.34   143.00   139.65   136.44   129.35   122.22   119.73   
 117.35   114.65   111.90   109.19   106.19   103.79   101.57   99.21    96.83    94.11    
 92.29    90.99    89.74    86.38    85.33    85.55    85.48    84.25    79.97    77.33    
 74.53    40.98    41.35    44.56    48.71    53.36    58.14    62.72    66.92    70.53    
 73.60    76.20    78.24    79.93    81.61    83.76    86.83    91.73    98.17    106.13   
 114.45   
211443.42 209270.26 205858.24 201596.60 195883.98 187792.09 176760.02 162537.99 145826.22 128384.70 
 111717.01 97788.86 86868.25 77960.27 70372.59 64370.59 59490.36 54819.17 50708.51 46532.97 
 42404.59 38062.37 33407.01 28983.80 25421.32 21874.90 19705.38 18154.26 17027.87 16166.83 
 15437.23 14799.11 14190.86 13652.67 13105.78 12513.05 11856.47 11208.26 10608.68 10032.72 
 9446.82  8917.75  8440.95  7959.07  7540.67  7112.88  6726.51  6376.60  6025.59  5720.74  
 5438.31  5179.83  4938.10  4726.17  4529.84  4349.64  4182.18  4016.52  3866.29  3738.12  
 3603.15  3448.47  3289.92  3117.14  2951.29  2778.97  2606.65  2434.34  2262.96  2104.69  
 1954.74  1813.32  1677.51  1546.19  1418.43  1299.29  1190.98  1088.58  993.43   903.33   
 822.61   747.15   677.41   613.17   558.40   511.14   471.18   436.96   408.33   386.18   
 366.82   348.42   329.56   312.22   297.15   283.34   271.13   260.98   252.50   244.02   
 235.57   229.47   223.89   218.58   213.64   208.96   204.22   199.62   195.26   191.19   
 187.18   183.30   179.69   176.09   172.68   169.59   166.41   163.30   160.21   156.90   
 153.56   149.93   146.61   143.68   140.58   137.79   135.21   133.14   130.37   127.97   
 125.57   123.40   120.96   118.47   116.23   113.98   112.04   109.92   107.67   105.97   
 103.23   99.66    95.84    91.92    88.15    85.88    84.47    84.18    83.26    84.29    
 83.11    79.54    77.82    76.57    74.95    74.36    71.79    70.93    64.78    39.08    
 39.95    42.72    46.32    50.87    55.75    60.59    65.17    69.58    73.42    76.91    
 79.92    82.32    84.30    86.45    88.70    91.26    94.75    99.19    104.36   110.33   
 114.45   
211443.42 209058.78 205774.90 202017.95 197596.78 191897.19 184329.01 174065.18 161344.39 146597.91 
 131060.16 116677.42 103499.22 92133.39 82852.39 75030.29 67891.23 61489.73 56106.50 50733.05 
 46189.05 42020.93 38236.62 34382.73 30941.32 27442.53 24202.59 21199.79 18388.68 16101.11 
 14368.71 13078.48 12022.95 11312.81 10605.68 10051.40 9511.53  9019.41  8598.23  8214.15  
 7838.63  7479.60  7153.94  6841.30  6552.17  6262.43  5996.48  5760.71  5535.86  5302.47  
 5074.56  4857.56  4655.42  4483.35  4311.57  4143.48  3984.86  3825.51  3658.75  3496.86  
 3328.03  3167.39  3015.80  2864.30  2716.91  2570.78  2427.94  2285.54  2137.81  2003.18  
 1863.72  1722.99  1597.80  1474.02  1353.95  1242.93  1140.77  1038.69  938.23   852.89   
 774.00   701.71   634.87   576.01   521.95   474.07   431.90   397.42   369.16   348.24   
 331.18   313.01   295.27   277.80   263.11   249.99   238.96   228.57   219.51   211.48   
 203.37   196.37   189.63   183.13   177.33   171.80   167.08   162.45   158.21   154.28   
 150.85   147.20   143.54   140.46   137.61   135.06   132.70   129.91   127.11   124.69   
 122.45   119.95   117.48   115.43   113.58   111.35   109.29   107.54   105.89   104.23   
 102.37   100.33   98.20    96.36    94.63    92.33    90.26    88.32    86.41    83.87    
 81.12    78.70    75.67    72.96    70.95    67.81    65.62    64.33    61.48    58.87    
 57.06    52.51    51.01    49.98    31.11    28.66    30.77    34.29    37.32    40.96    
 45.10    49.37    53.62    57.82    61.84    65.73    69.36    72.76    75.87    78.71    
 81.41    84.12    86.96    89.95    93.24    97.20    101.66   106.51   111.55   117.02   
 114.45   
211443.42 209528.21 206908.36 203981.07 200601.99 196825.53 192482.14 186897.63 179912.53 170255.61 
 158798.98 146118.56 133249.74 121197.60 110080.20 99312.35 88809.01 78541.66 69127.94 60698.94 
 53470.22 47113.99 42021.20 37799.28 34317.49 31417.91 28697.06 26437.30 24177.53 21918.23 
 19697.80 17746.73 15814.37 14028.02 12512.11 11136.06 9988.00  9023.87  8280.57  7702.49  
 7217.00  6825.24  6479.52  6181.09  5908.91  5682.11  5455.92  5248.78  5063.78  4885.89  
 4722.34  4563.05  4417.73  4280.44  4134.07  3976.64  3816.43  3663.87  3501.47  3335.78  
 3167.95  2992.09  2827.53  2685.67  2543.87  2406.85  2272.13  2133.85  1996.49  1874.05  
 1753.13  1633.92  1514.70  1405.23  1298.79  1199.40  1101.66  1010.00  924.04   840.24   
 760.04   687.38   620.04   561.14   508.34   462.90   422.56   388.44   358.61   335.01   
 316.97   300.19   283.07   266.47   252.61   238.75   224.93   214.05   203.56   193.86   
 184.64   175.57   168.03   161.22   154.77   148.72   142.60   137.30   132.68   128.46   
 124.62   120.75   116.93   113.44   110.42   107.41   104.89   102.21   99.50    96.66    
 94.14    92.19    89.52    86.94    84.97    82.30    79.90    77.71    75.44    72.96    
 70.67    68.24    66.09    64.05    61.91    59.57    57.71    55.47    53.28    50.37    
 47.20    43.78    40.26    37.28    32.60    17.12    12.90    12.13    13.49    15.53    
 17.79    20.24    22.97    25.89    28.99    32.30    35.73    39.30    42.99    46.63    
 50.26    53.81    57.22    60.59    63.81    66.99    70.00    73.00    75.92    78.86    
 81.82    85.02    88.59    92.59    96.99    101.75   106.87   112.13   117.49   122.87   
 114.45   
211443.42 209912.65 208003.53 205771.16 203211.88 200264.75 196805.13 192296.38 186377.06 180161.21 
 172480.82 163742.38 154476.25 143908.94 132909.47 121699.90 110195.67 98573.02 86580.99 73662.54 
 62002.59 52524.83 44945.89 39117.33 34579.93 31098.79 28331.44 25852.04 23671.40 21720.32 
 19888.81 18131.29 16613.35 14984.15 13564.62 12203.62 10958.89 9715.08  8770.25  7982.56  
 7331.37  6800.08  6334.76  5944.74  5626.84  5351.05  5089.58  4888.63  4699.26  4512.03  
 4333.52  4157.06  3986.36  3821.46  3669.74  3498.85  3326.56  3148.92  2968.77  2800.92  
 2637.29  2479.05  2332.31  2200.86  2071.21  1944.85  1824.27  1709.49  1597.22  1489.91  
 1389.21  1292.67  1202.70  1112.77  1022.85  941.83   867.56   797.12   731.12   668.18   
 609.41   554.45   501.59   454.54   411.55   373.64   338.08   306.21   279.36   257.96   
 240.00   227.07   213.74   200.63   188.05   177.14   167.85   158.31   148.94   140.29   
 132.52   125.13   117.74   109.53   103.73   99.33    94.66    89.60    85.44    80.85    
 77.01    73.54    69.53    65.82    62.86    59.05    54.88    50.93    47.03    43.63    
 39.98    36.45    32.84    29.36    25.84    22.27    18.61    15.53    13.07    10.92    
 8.93     4.73     3.56     3.86     4.23     4.65     5.13     5.66     6.26     6.98     
 7.80     8.73     9.76     10.93    12.21    13.66    15.24    16.97    18.86    20.90    
 23.09    25.40    27.87    30.51    33.29    36.14    39.14    42.25    45.39    48.57    
 51.75    54.94    58.10    61.28    64.43    67.62    70.86    74.18    77.56    81.07    
 84.76    88.75    93.12    97.83    102.75   108.23   113.92   119.89   125.88   131.77   
 114.45   
211443.42 210559.13 209220.68 207575.81 205633.51 203236.52 198205.18 192921.25 186969.15 180034.75 
 170987.28 162194.31 153162.66 143800.76 133318.37 120444.48 106722.68 92253.04 79223.36 67561.16 
 56264.96 47126.32 39560.48 33530.56 28924.55 25082.28 21836.38 19281.47 17347.09 15513.47 
 13896.60 12583.54 11166.25 9931.13  8698.13  7580.73  6657.82  5833.25  5126.02  4628.60  
 4217.86  3868.84  3605.00  3376.49  3143.48  2967.36  2833.02  2708.19  2593.64  2455.42  
 2291.35  2139.75  1964.95  1799.67  1632.61  1487.03  1350.75  1228.15  1125.70  1014.97  
 904.15   811.37   723.46   643.16   568.84   497.63   433.12   376.92   322.93   273.97   
 232.25   195.36   163.49   136.73   117.06   97.49    77.91    65.03    56.41    48.43    
 41.04    35.15    33.23    31.56    29.88    28.64    15.43    3.56     1.98     1.97     
 1.97     1.93     1.89     1.89     1.92     1.92     1.97     2.03     2.10     2.17     
 2.26     2.35     2.45     2.56     2.67     2.79     2.92     3.06     3.21     3.35     
 3.51     3.68     3.85     4.02     4.20     4.39     4.59     4.80     5.03     5.26     
 5.51     5.77     6.06     6.38     6.73     7.10     7.54     8.01     8.55     9.14     
 9.82     10.57    11.43    12.38    13.44    14.67    16.09    17.70    19.62    21.82    
 24.38    27.32    30.64    34.40    38.55    43.14    48.10    53.38    58.98    64.97    
 71.24    77.51    83.81    89.91    96.11    102.20   107.99   113.60   118.96   124.00   
 128.63   132.90   136.78   140.20   143.14   145.59   147.57   149.08   150.05   150.49   
 150.33   149.51   148.17   146.34   144.06   141.25   137.93   134.05   129.73   124.74   
 114.45   
211443.42 210371.55 208749.76 207108.43 205385.02 203317.33 199071.09 193996.24 187303.84 180558.27 
 169797.02 159703.43 149205.44 134088.04 115662.18 97769.04 82576.62 71249.68 61649.07 50917.67 
 40449.61 30811.99 25614.06 20430.15 16907.31 13159.80 10378.75 8836.40  7537.09  6602.52  
 5684.78  4236.85  3552.72  2968.46  2405.38  1844.15  1498.78  1255.25  992.40   716.17   
 556.40   453.46   376.04   305.85   250.10   194.50   158.21   133.82   110.82   93.69    
 81.95    71.92    60.75    52.84    47.08    41.80    37.73    34.16    31.07    28.15    
 26.28    24.47    22.98    21.58    20.05    18.23    16.09    14.47    14.50    14.47    
 14.44    14.43    14.48    14.62    14.65    14.63    14.51    14.44    14.09    13.54    
 12.87    11.56    9.77     7.31     4.77     1.75     1.52     1.55     1.61     1.66     
 1.72     1.79     1.86     1.94     2.04     2.13     2.23     2.35     2.46     2.59     
 2.72     2.86     3.02     3.17     3.34     3.52     3.70     3.89     4.09     4.30     
 4.51     4.73     4.96     5.20     5.43     5.69     5.95     6.21     6.48     6.78     
 7.09     7.43     7.79     8.17     8.61     9.08     9.58     10.16    10.78    11.45    
 12.21    13.03    14.00    15.04    16.17    17.48    19.03    20.77    22.74    24.99    
 27.71    30.72    34.13    38.00    42.31    47.05    52.12    57.60    63.35    69.38    
 75.60    81.91    88.12    94.48    100.65   106.68   112.56   118.08   123.46   128.39   
 133.01   137.28   141.12   144.61   147.76   150.36   152.50   154.20   155.44   156.09   
 156.10   155.44   154.20   152.22   149.67   146.49   142.49   137.81   132.24   126.06   
 114.45   
211443.42 210062.65 208284.73 206038.71 203458.02 200356.91 196117.37 183303.17 162367.58 138570.18 
 124248.58 106536.88 89156.84 77169.27 60939.57 47190.74 41063.07 33687.93 23127.61 18774.06 
 13895.87 10664.31 7452.16  2598.52  1401.50  1127.97  863.92   599.87   428.62   312.21   
 235.61   194.39   167.71   146.72   128.79   112.56   96.33    85.52    76.40    67.35    
 59.95    52.28    46.47    40.96    36.98    33.47    30.62    28.01    25.82    23.55    
 20.52    17.20    13.18    11.46    10.82    10.27    9.67     9.16     8.64     8.22     
 7.83     7.51     7.17     6.86     6.63     6.43     6.20     6.03     5.87     5.72     
 5.60     5.47     5.29     5.11     4.95     4.74     4.44     4.05     3.67     3.35     
 2.97     2.60     2.19     1.94     1.87     1.87     1.90     1.97     2.03     2.10     
 2.18     2.28     2.37     2.48     2.60     2.73     2.88     3.02     3.18     3.33     
 3.50     3.67     3.85     4.05     4.25     4.45     4.66     4.88     5.11     5.33     
 5.58     5.83     6.09     6.35     6.62     6.90     7.19     7.47     7.79     8.12     
 8.48     8.84     9.25     9.68     10.15    10.62    11.18    11.82    12.53    13.29    
 14.14    15.07    16.06    17.21    18.52    19.96    21.54    23.40    25.48    27.83    
 30.50    33.59    37.11    41.05    45.44    50.24    55.51    61.22    67.34    73.80    
 80.51    87.39    94.51    101.54   108.67   115.54   122.27   128.72   134.70   140.25   
 145.34   149.85   153.76   157.10   159.96   162.28   164.16   165.54   166.26   166.35   
 165.91   164.76   162.84   160.26   157.08   153.02   148.17   142.53   136.14   128.39   
 114.45   
211443.42 210053.25 208068.51 204762.17 200202.15 192724.12 167911.52 141422.97 125461.38 104933.99 
 85611.59 62343.20 52853.52 38931.32 30950.96 22970.60 15022.70 10496.52 5970.34  1476.28  
 1297.89  886.71   588.90   439.35   380.70   319.32   257.94   196.73   152.84   111.38   
 93.06    79.90    70.00    62.58    55.79    50.63    46.36    42.04    38.09    34.61    
 31.06    27.44    24.16    19.58    16.58    15.20    14.33    13.35    12.40    11.58    
 10.81    10.04    9.29     8.50     7.70     7.07     6.55     6.14     5.82     5.50     
 5.16     4.85     4.59     4.37     4.15     3.95     3.75     3.51     3.37     3.25     
 3.14     3.02     2.89     2.76     2.62     2.51     2.39     2.30     2.20     2.13     
 2.03     1.98     1.99     2.01     2.04     2.10     2.16     2.22     2.29     2.36     
 2.43     2.51     2.58     2.68     2.79     2.90     3.02     3.15     3.29     3.44     
 3.59     3.75     3.92     4.10     4.30     4.50     4.70     4.91     5.13     5.38     
 5.61     5.86     6.13     6.41     6.70     6.99     7.30     7.60     7.91     8.26     
 8.61     9.01     9.40     9.81     10.28    10.78    11.32    11.92    12.58    13.33    
 14.15    15.12    16.17    17.34    18.61    20.08    21.72    23.53    25.48    27.73    
 30.32    33.17    36.39    40.01    44.06    48.74    53.78    59.37    65.50    72.14    
 79.29    86.79    94.48    102.74   111.02   119.36   127.71   135.62   143.44   150.59   
 157.12   162.90   167.90   172.15   175.47   178.08   179.70   180.28   180.19   179.29   
 177.66   175.35   172.24   168.54   164.17   159.02   153.04   146.47   139.04   130.61   
 114.45   
211443.42 209915.46 207275.82 202486.71 195358.88 166227.95 135489.91 114681.62 92923.81 67924.97 
 55088.23 37103.41 28227.93 17357.41 9636.66  7404.71  5229.62  3054.53  879.44   657.68   
 407.22   314.24   295.92   190.22   239.85   192.18   140.22   125.32   109.91   94.48    
 84.57    67.07    56.24    48.88    46.38    40.34    34.16    34.50    23.72    21.55    
 18.66    18.85    17.35    15.55    14.02    13.51    11.62    10.66    9.67     9.22     
 8.24     7.58     7.05     6.11     5.25     4.76     4.56     4.46     4.30     4.08     
 3.83     3.61     3.44     3.23     3.06     2.89     2.76     2.63     2.52     2.42     
 2.32     2.24     2.17     2.11     2.07     2.02     1.98     1.95     1.91     1.89     
 1.88     1.88     1.88     1.92     1.97     2.03     2.09     2.16     2.23     2.32     
 2.41     2.50     2.60     2.71     2.82     2.93     3.06     3.21     3.36     3.52     
 3.70     3.88     4.08     4.28     4.49     4.73     4.96     5.20     5.44     5.69     
 5.96     6.25     6.54     6.84     7.16     7.50     7.85     8.19     8.55     8.94     
 9.33     9.74     10.17    10.61    11.10    11.60    12.09    12.67    13.27    13.92    
 14.66    15.48    16.39    17.41    18.60    19.97    21.52    23.17    25.08    27.19    
 29.52    32.22    35.25    38.67    42.51    46.77    51.52    56.80    62.70    69.53    
 76.90    84.72    92.92    101.36   109.95   118.88   128.49   138.05   147.40   156.16   
 164.19   171.73   178.18   183.73   187.94   190.75   192.23   192.56   191.70   189.83   
 186.88   183.01   178.35   172.87   166.93   160.25   152.96   145.17   136.58   127.25   
 114.45   
211443.42 210128.18 207834.39 202928.42 192388.02 156409.25 126991.00 102358.74 75783.94 55357.39 
 37885.34 26946.92 16035.96 8358.76  749.82   733.01   644.54   417.47   375.67   433.07   
 320.38   207.69   95.61    57.56    44.35    34.07    27.06    23.45    19.85    17.53    
 16.31    15.24    14.15    13.15    12.28    9.84     8.06     7.27     6.91     6.68     
 6.43     6.17     5.89     5.69     5.51     5.27     4.99     4.75     4.63     4.36     
 4.20     4.06     3.85     3.69     3.58     3.35     3.21     3.10     2.99     2.86     
 2.74     2.66     2.59     2.52     2.47     2.43     2.39     2.37     2.36     2.30     
 2.26     2.24     2.20     2.18     2.14     2.10     2.07     2.06     2.06     2.06     
 2.07     2.09     2.12     2.15     2.19     2.23     2.28     2.34     2.39     2.45     
 2.53     2.61     2.69     2.76     2.83     2.94     3.06     3.19     3.35     3.52     
 3.69     3.89     4.10     4.33     4.58     4.84     5.10     5.37     5.62     5.89     
 6.16     6.45     6.73     7.01     7.31     7.63     7.96     8.31     8.67     9.08     
 9.50     9.98     10.49    10.99    11.50    12.04    12.63    13.24    13.88    14.55    
 15.26    16.01    16.82    17.70    18.66    19.75    21.01    22.43    24.06    25.90    
 28.03    30.38    32.95    35.90    39.14    42.92    47.16    51.99    57.49    63.87    
 71.03    78.96    87.33    96.64    106.31   116.25   126.63   136.84   147.46   157.69   
 167.69   177.08   185.24   192.22   197.53   201.60   203.90   204.40   203.35   200.91   
 197.17   192.01   186.29   179.72   172.29   164.32   155.67   146.83   137.51   128.01   
 114.45   
211443.42 210234.22 207881.70 202823.50 189971.68 152148.70 124614.83 99943.40 71588.85 54001.60 
 33603.49 23555.13 14324.50 9578.58  4881.55  184.52   97.22    56.83    44.84    33.69    
 28.34    23.63    19.61    17.06    14.92    13.65    12.59    11.23    10.25    9.64     
 9.18     8.86     8.51     7.90     6.88     6.11     5.74     5.63     5.52     5.42     
 5.48     5.56     5.44     5.06     4.90     4.70     4.68     4.84     4.93     4.76     
 4.59     4.43     4.37     4.35     4.32     4.31     4.28     4.12     4.02     3.92     
 3.81     3.73     3.59     3.41     3.29     3.17     3.04     2.89     2.79     2.69     
 2.63     2.56     2.49     2.44     2.41     2.37     2.37     2.37     2.37     2.39     
 2.44     2.47     2.51     2.57     2.69     2.88     3.00     3.12     3.21     3.27     
 3.35     3.41     3.50     3.53     3.54     3.55     3.59     3.66     3.76     3.90     
 4.07     4.26     4.46     4.69     4.94     5.22     5.50     5.78     6.05     6.32     
 6.59     6.87     7.16     7.43     7.71     8.01     8.37     8.73     9.12     9.55     
 10.01    10.49    11.00    11.51    12.09    12.70    13.37    14.06    14.78    15.53    
 16.32    17.15    18.00    18.89    19.83    20.85    22.00    23.37    24.94    26.68    
 28.67    30.88    33.31    36.16    39.31    42.91    46.92    51.50    56.72    62.99    
 70.40    78.62    87.66    97.24    106.93   117.02   127.99   139.22   150.02   160.41   
 170.31   179.87   188.74   195.75   201.04   204.58   206.30   206.11   204.23   200.85   
 196.29   190.48   183.98   176.75   169.38   161.39   153.50   145.62   136.96   127.45   
 114.45   
