IESNA:LM-63-2002
[TEST] 1
[TESTLAB] AOK
[TESTDATE] 2022-05-16
[ISSUEDATE] 2022-05-16 09:09:43
[NEARFIELD] 
[LAMPPOSITION] 0,0
[OTHER] EVERFINE GO-2000A_V1 SYSTEM
[MANUFAC] AOK
[LUMCAT] A
[LUMINAIRE] AOK-400WiSF-NVY-S5-00-5070-3585D-P
[LAMPCAT] B
[LAMP] 5050
[BALLAST] E
[BALLASTCAT] F
[OTHER] 
[OTHER] Gamma(deg)    Fz(lm)      Ft(lm)     %Lum    %Lamp
[OTHER]   0- 10      4109.08     4109.08     7.93     7.93
[OTHER]  10- 20      8652.98    12762.06    24.63    24.63
[OTHER]  20- 30      9945.17    22707.23    43.83    43.83
[OTHER]  30- 40      9791.13    32498.36    62.73    62.73
[OTHER]  40- 50      8070.00    40568.37    78.31    78.31
[OTHER]  50- 60      5745.19    46313.56    89.40    89.40
[OTHER]  60- 70      3240.26    49553.82    95.65    95.65
[OTHER]  70- 80      1339.10    50892.92    98.24    98.24
[OTHER]  80- 90       422.58    51315.50    99.05    99.05
[OTHER]  90-100       169.15    51484.65    99.38    99.38
[OTHER] 100-110        90.44    51575.09    99.55    99.55
[OTHER] 110-120        65.57    51640.66    99.68    99.68
[OTHER] 120-130        51.11    51691.77    99.78    99.78
[OTHER] 130-140        40.05    51731.82    99.86    99.86
[OTHER] 140-150        31.36    51763.17    99.92    99.92
[OTHER] 150-160        23.64    51786.81    99.96    99.96
[OTHER] 160-170        14.48    51801.29    99.99    99.99
[OTHER] 170-180         5.09    51806.38   100.00   100.00
[OTHER] 
TILT=NONE
1 51806 1 181 25 1 2 0.150 0.200 0.000
1.000 1 384.797
0.0    1.0    2.0    3.0    4.0    5.0    6.0    7.0    8.0    9.0    
 10.0   11.0   12.0   13.0   14.0   15.0   16.0   17.0   18.0   19.0   
 20.0   21.0   22.0   23.0   24.0   25.0   26.0   27.0   28.0   29.0   
 30.0   31.0   32.0   33.0   34.0   35.0   36.0   37.0   38.0   39.0   
 40.0   41.0   42.0   43.0   44.0   45.0   46.0   47.0   48.0   49.0   
 50.0   51.0   52.0   53.0   54.0   55.0   56.0   57.0   58.0   59.0   
 60.0   61.0   62.0   63.0   64.0   65.0   66.0   67.0   68.0   69.0   
 70.0   71.0   72.0   73.0   74.0   75.0   76.0   77.0   78.0   79.0   
 80.0   81.0   82.0   83.0   84.0   85.0   86.0   87.0   88.0   89.0   
 90.0   91.0   92.0   93.0   94.0   95.0   96.0   97.0   98.0   99.0   
 100.0  101.0  102.0  103.0  104.0  105.0  106.0  107.0  108.0  109.0  
 110.0  111.0  112.0  113.0  114.0  115.0  116.0  117.0  118.0  119.0  
 120.0  121.0  122.0  123.0  124.0  125.0  126.0  127.0  128.0  129.0  
 130.0  131.0  132.0  133.0  134.0  135.0  136.0  137.0  138.0  139.0  
 140.0  141.0  142.0  143.0  144.0  145.0  146.0  147.0  148.0  149.0  
 150.0  151.0  152.0  153.0  154.0  155.0  156.0  157.0  158.0  159.0  
 160.0  161.0  162.0  163.0  164.0  165.0  166.0  167.0  168.0  169.0  
 170.0  171.0  172.0  173.0  174.0  175.0  176.0  177.0  178.0  179.0  
 180.0  
0.0    15.0   30.0   45.0   60.0   75.0   90.0   105.0  120.0  135.0  
 150.0  165.0  180.0  195.0  210.0  225.0  240.0  255.0  270.0  285.0  
 300.0  315.0  330.0  345.0  360.0  
45478.50 43134.67 41920.39 41190.18 37562.14 31967.74 27683.76 23436.42 18263.04 14836.39 
 11132.69 7425.51  3718.34  1909.07  120.54   69.13    35.84    26.21    20.52    17.17    
 14.94    12.99    11.50    10.62    9.89     9.22     8.50     7.93     7.44     7.15     
 7.09     6.88     6.43     5.80     5.27     5.09     4.96     4.92     4.71     4.67     
 4.62     4.51     4.25     4.15     4.11     4.10     4.09     4.05     3.95     3.81     
 3.72     3.64     3.57     3.49     3.43     3.32     3.19     3.10     3.04     2.94     
 2.89     2.88     2.85     2.78     2.72     2.65     2.57     2.51     2.45     2.41     
 2.39     2.36     2.34     2.31     2.29     2.28     2.28     2.28     2.29     2.34     
 2.40     2.46     2.53     2.63     2.80     2.96     3.09     3.21     3.33     3.46     
 3.61     3.76     3.94     4.12     4.29     4.47     4.69     4.93     5.21     5.52     
 5.89     6.28     6.70     7.19     7.68     8.18     8.73     9.31     9.91     10.53    
 11.18    11.86    12.55    13.27    13.99    14.74    15.52    16.30    17.13    18.01    
 18.92    19.90    20.92    22.01    23.14    24.36    25.65    26.98    28.33    29.71    
 31.11    32.56    34.03    35.53    36.99    38.43    39.90    41.36    42.82    44.27    
 45.72    47.20    48.77    50.47    52.28    54.11    55.98    57.90    59.86    62.01    
 64.32    66.66    69.01    71.29    73.48    75.56    77.61    79.54    81.21    82.65    
 83.86    84.91    85.70    86.12    86.17    85.82    85.05    83.88    82.27    80.31    
 78.09    75.58    72.88    70.08    67.14    64.15    61.21    58.26    55.27    52.11    
 48.72    
45478.50 43181.79 41851.81 41049.83 39974.98 33224.65 29588.58 25098.02 20617.97 17522.89 
 12523.23 9684.46  6568.57  3503.73  465.20   352.49   239.78   128.01   113.61   108.32   
 109.91   82.24    65.19    73.00    71.56    59.65    43.26    37.38    32.12    23.42    
 17.92    15.17    13.38    11.89    10.49    9.07     8.43     8.28     7.96     7.74     
 7.59     7.26     7.00     6.66     6.28     5.88     5.60     5.34     5.06     4.78     
 4.54     4.29     4.05     3.82     3.59     3.38     3.17     3.00     2.86     2.74     
 2.64     2.55     2.46     2.36     2.29     2.23     2.19     2.15     2.12     2.09     
 2.04     2.01     1.98     1.96     1.96     1.97     1.97     1.98     2.00     2.05     
 2.09     2.15     2.23     2.31     2.40     2.51     2.62     2.74     2.87     3.01     
 3.19     3.36     3.54     3.75     3.98     4.23     4.50     4.80     5.13     5.49     
 5.88     6.30     6.79     7.29     7.80     8.33     8.88     9.46     10.06    10.68    
 11.32    12.00    12.72    13.43    14.15    14.93    15.74    16.58    17.43    18.33    
 19.32    20.35    21.46    22.58    23.73    24.94    26.22    27.54    28.88    30.23    
 31.61    32.97    34.33    35.69    37.01    38.32    39.65    40.95    42.24    43.58    
 45.01    46.49    48.03    49.66    51.36    53.13    54.95    56.88    58.87    60.98    
 63.18    65.44    67.64    69.87    72.01    74.00    75.86    77.51    78.98    80.25    
 81.35    82.26    82.88    83.22    83.17    82.73    81.92    80.73    79.14    77.32    
 75.29    73.09    70.86    68.58    66.20    63.79    61.27    58.60    55.82    52.96    
 48.72    
45478.50 43458.80 42142.10 41373.09 40907.29 37306.61 32113.92 28588.99 25151.44 19827.02 
 16790.44 12740.71 9804.55  6880.96  4252.57  917.08   637.26   388.60   256.49   225.53   
 183.89   149.79   144.88   141.41   121.85   102.11   85.32    75.57    77.68    67.46    
 65.78    55.03    50.97    50.16    43.93    43.84    34.68    32.46    34.00    31.97    
 29.71    29.71    33.00    30.92    28.01    27.62    26.42    24.86    21.29    20.90    
 18.78    16.09    11.98    9.98     9.14     8.76     8.10     7.39     6.59     5.75     
 4.99     4.45     4.06     3.79     3.48     3.14     2.80     2.54     2.35     2.22     
 2.12     2.05     2.01     1.98     1.95     1.94     1.94     1.92     1.92     1.92     
 1.96     2.02     2.11     2.21     2.32     2.45     2.59     2.76     2.94     3.14     
 3.36     3.61     3.88     4.18     4.51     4.87     5.27     5.68     6.11     6.56     
 7.05     7.54     8.06     8.61     9.17     9.78     10.41    11.07    11.74    12.46    
 13.22    13.97    14.77    15.61    16.50    17.42    18.34    19.28    20.28    21.34    
 22.42    23.51    24.62    25.75    26.91    28.04    29.18    30.33    31.49    32.65    
 33.80    34.96    36.10    37.28    38.53    39.84    41.18    42.55    43.98    45.49    
 47.09    48.75    50.46    52.20    54.00    55.93    57.93    59.93    61.92    63.91    
 65.92    67.92    69.81    71.55    73.27    74.79    76.17    77.41    78.55    79.55    
 80.31    80.80    81.03    80.99    80.67    80.06    79.16    78.01    76.69    75.21    
 73.58    71.84    70.06    68.13    66.17    64.21    62.17    60.08    57.93    55.71    
 48.72    
45478.50 43971.66 42516.88 41698.94 41108.43 40410.99 38610.85 33240.58 30079.22 26996.85 
 23718.90 20438.93 16928.74 15235.71 11207.24 9205.90  6744.11  4780.52  2816.92  866.05   
 624.80   457.82   365.58   303.56   241.54   179.80   148.44   112.47   88.58    76.62    
 67.53    59.77    55.09    50.88    47.56    44.23    41.48    38.34    35.51    33.39    
 30.92    28.50    25.72    23.69    21.50    20.56    19.88    19.33    18.51    17.73    
 16.81    15.76    14.60    13.24    12.02    11.12    10.38    9.72     9.07     8.41     
 7.79     7.19     6.62     6.15     5.72     5.36     5.01     4.66     4.29     3.92     
 3.57     3.25     2.98     2.75     2.56     2.40     2.26     2.16     2.11     2.11     
 2.11     2.15     2.22     2.33     2.48     2.65     2.84     3.07     3.32     3.59     
 3.89     4.21     4.56     4.94     5.34     5.74     6.19     6.67     7.16     7.67     
 8.21     8.75     9.33     9.94     10.59    11.25    11.96    12.69    13.43    14.20    
 15.01    15.89    16.76    17.62    18.55    19.52    20.50    21.51    22.50    23.48    
 24.52    25.59    26.69    27.80    28.91    30.03    31.22    32.44    33.69    34.95    
 36.26    37.59    38.98    40.39    41.79    43.25    44.79    46.34    47.89    49.53    
 51.21    52.89    54.57    56.28    57.95    59.67    61.33    62.99    64.53    66.05    
 67.51    68.90    70.17    71.42    72.59    73.64    74.56    75.29    75.92    76.38    
 76.68    76.83    76.77    76.52    76.10    75.56    74.91    74.14    73.25    72.28    
 71.24    70.11    68.91    67.65    66.34    64.95    63.50    62.02    60.51    58.90    
 48.72    
45478.50 44501.84 43498.76 42549.26 41738.91 40936.02 39750.82 39202.28 38350.48 35277.35 
 31585.79 29148.51 26771.80 24499.47 22801.63 20120.72 17183.41 14972.93 13493.87 11324.56 
 9522.72  7725.38  6000.87  4798.46  3146.02  1473.37  1147.75  836.26   524.76   392.67   
 298.68   225.89   187.45   161.13   140.94   124.66   108.42   92.19    80.55    69.98    
 61.30    53.41    46.63    41.56    36.97    32.92    28.62    25.85    23.32    20.83    
 19.05    17.45    15.45    13.57    12.37    11.58    11.00    10.41    9.82     9.25     
 8.71     8.20     7.70     7.25     6.84     6.47     6.13     5.84     5.58     5.35     
 5.14     4.93     4.71     4.44     4.20     3.97     3.73     3.51     3.29     3.06     
 2.86     2.70     2.64     2.68     2.85     3.06     3.28     3.54     3.81     4.12     
 4.43     4.80     5.18     5.59     6.03     6.48     6.96     7.48     8.04     8.64     
 9.28     9.96     10.66    11.39    12.17    13.00    13.86    14.71    15.59    16.48    
 17.43    18.39    19.39    20.40    21.46    22.59    23.70    24.84    26.01    27.25    
 28.51    29.77    31.04    32.36    33.74    35.10    36.48    37.90    39.36    40.82    
 42.27    43.72    45.15    46.58    48.05    49.54    51.01    52.48    53.91    55.32    
 56.75    58.21    59.63    61.00    62.33    63.57    64.77    65.87    66.94    67.93    
 68.82    69.61    70.33    71.00    71.59    72.07    72.44    72.74    72.96    73.11    
 73.20    73.21    73.18    73.06    72.92    72.70    72.44    72.12    71.78    71.30    
 70.70    70.06    69.38    68.65    67.91    67.10    66.20    65.22    64.23    63.13    
 48.72    
45478.50 45068.92 44674.43 44250.04 43483.64 42598.15 41676.51 40970.54 40015.39 39165.12 
 38321.75 37384.50 36688.41 35949.77 35164.14 34267.46 33369.12 31888.67 29998.56 27718.52 
 25693.73 24243.87 22793.95 21335.47 19820.72 18135.25 16651.19 15566.18 13732.65 12089.52 
 10705.22 9239.53  8204.79  7083.20  6036.43  4923.47  4113.90  3564.35  2993.21  2422.06  
 1852.48  1441.69  1076.59  847.82   668.51   513.10   349.06   271.11   193.49   153.02   
 121.89   100.88   83.92    69.55    60.19    51.00    44.09    38.70    33.42    29.26    
 25.99    23.13    20.46    18.22    16.36    14.84    13.60    11.86    10.72    10.15    
 9.76     9.43     9.09     8.73     8.41     8.06     7.80     7.53     7.29     6.87     
 6.26     5.41     4.39     3.18     2.48     2.60     2.78     2.98     3.20     3.44     
 3.71     4.01     4.34     4.69     5.08     5.49     5.96     6.44     6.94     7.49     
 8.06     8.65     9.29     9.96     10.69    11.43    12.22    13.06    13.93    14.84    
 15.79    16.79    17.83    18.90    19.97    21.08    22.21    23.35    24.49    25.64    
 26.88    28.15    29.47    30.77    32.06    33.38    34.77    36.20    37.60    39.00    
 40.42    41.80    43.20    44.58    45.92    47.27    48.62    49.94    51.22    52.49    
 53.74    54.95    56.11    57.23    58.35    59.44    60.47    61.47    62.44    63.37    
 64.26    65.09    65.87    66.61    67.30    67.94    68.55    69.10    69.63    70.08    
 70.50    70.88    71.22    71.59    71.93    72.26    72.58    72.80    72.93    72.85    
 72.59    72.28    71.92    71.55    71.12    70.65    70.10    69.40    68.65    67.90    
 48.72    
45478.50 45685.21 45895.89 46099.14 46012.00 45754.43 45315.30 45076.48 44543.26 44033.39 
 43591.26 43108.94 42619.06 42167.40 41556.45 41025.54 40492.16 40079.52 39398.75 38719.76 
 38034.29 37290.25 36695.80 36209.34 35348.59 34692.40 33717.09 32850.87 32063.42 31172.96 
 30362.41 29325.39 28323.78 27257.97 26189.31 25223.44 24257.56 23289.91 22173.46 21134.89 
 20060.68 19118.34 18007.97 17059.22 15976.88 15057.39 14055.75 13153.14 12140.59 11308.36 
 10447.14 9573.35  8732.35  7981.84  7273.37  6582.16  5946.59  5417.43  4848.71  4301.32  
 3807.93  3382.72  2989.09  2654.77  2321.08  2048.77  1786.33  1554.08  1334.17  1149.31  
 981.45   831.91   700.49   585.96   483.90   391.17   313.76   256.50   199.41   157.78   
 120.62   91.40    69.73    53.53    38.68    13.52    6.33     3.15     1.91     1.69     
 1.54     1.44     1.23     1.24     1.26     1.29     1.33     1.37     1.42     1.47     
 1.53     1.61     1.69     1.78     1.88     1.99     2.11     2.24     2.38     2.53     
 2.69     2.85     3.02     3.21     3.41     3.60     3.81     4.02     4.25     4.51     
 4.77     5.06     5.34     5.63     5.94     6.26     6.59     6.93     7.27     7.64     
 8.01     8.39     8.80     9.21     9.61     10.01    10.46    10.92    11.39    11.85    
 12.35    12.87    13.41    14.00    14.60    15.26    15.96    16.65    17.37    18.09    
 18.82    19.57    20.38    21.24    22.15    23.09    24.14    25.32    26.59    27.90    
 29.25    30.67    32.14    33.70    35.31    37.04    38.86    40.54    42.16    43.80    
 45.46    47.09    48.71    50.29    51.75    53.15    54.53    55.75    56.96    58.17    
 48.72    
45478.50 46333.40 47153.28 47900.41 48437.56 48843.14 49027.90 49395.34 49603.77 49895.13 
 49994.22 50023.22 50091.85 50172.90 50141.33 50145.11 49996.52 49850.43 49551.66 49054.45 
 48366.43 47773.19 47048.07 46353.99 45366.39 44509.23 43564.54 42469.12 41253.10 39955.51 
 38757.63 37681.31 36485.47 35320.72 34244.76 33105.16 31940.89 30792.52 29759.86 28648.93 
 27589.44 26683.18 25726.13 24688.17 23717.85 22724.00 21629.34 20727.04 19822.28 18840.97 
 17930.04 16964.92 15987.21 15146.05 14390.60 13595.71 12832.65 12089.98 11395.53 10701.48 
 10014.11 9351.06  8711.23  8090.78  7524.70  6941.20  6380.78  5866.23  5348.82  4863.20  
 4384.37  3953.35  3538.53  3138.58  2779.11  2475.84  2224.06  1959.29  1727.43  1514.21  
 1345.20  1212.88  1078.03  943.17   843.18   749.90   676.55   614.67   553.07   498.14   
 448.98   399.21   352.42   315.06   282.21   252.51   227.05   205.28   186.21   168.57   
 154.33   141.38   129.16   119.20   109.26   101.35   94.79    88.48    83.56    78.79    
 74.56    70.81    67.66    64.23    61.10    58.06    54.96    52.38    49.63    47.25    
 44.71    42.25    40.21    37.71    35.28    32.77    30.25    27.68    25.01    22.02    
 18.09    14.53    11.68    9.74     7.99     6.93     6.69     6.89     7.27     7.68     
 8.10     8.53     8.96     9.40     9.83     10.28    10.72    11.16    11.59    12.04    
 12.50    12.97    13.46    13.97    14.57    15.20    15.90    16.64    17.51    18.42    
 19.41    20.53    21.76    23.13    24.63    26.27    28.04    29.78    31.69    33.54    
 35.51    37.53    39.62    41.66    43.69    45.71    47.64    49.55    51.45    53.49    
 48.72    
45478.50 46901.76 48216.08 49506.27 50794.90 51950.67 52769.55 53650.74 54376.26 54999.17 
 55254.41 55396.93 55171.37 54430.39 53311.84 51910.60 50749.96 49535.25 48498.78 47567.55 
 46465.38 45439.06 44348.74 43297.96 42184.08 41182.02 40108.07 39078.41 38053.07 37052.35 
 36089.32 35018.99 33956.21 32844.62 31688.21 30484.18 29340.99 28238.11 27145.00 26193.20 
 25288.09 24382.97 23479.30 22714.98 21933.21 21198.66 20453.14 19748.66 19063.99 18365.15 
 17673.75 16958.33 16244.19 15471.55 14748.27 14064.81 13401.50 12787.90 12131.39 11433.70 
 10772.64 10139.78 9546.54  9025.61  8551.38  8094.80  7614.63  7066.10  6538.56  6026.65  
 5561.18  5090.27  4642.74  4207.23  3786.51  3311.52  2942.98  2574.44  2207.02  1942.36  
 1665.89  1402.84  1221.04  1052.81  928.14   816.18   734.24   667.39   614.26   568.94   
 522.49   477.74   435.22   396.19   362.09   333.47   306.99   284.05   263.17   244.52   
 225.92   211.30   198.69   187.34   176.75   167.53   159.42   151.82   144.98   139.05   
 133.68   128.90   124.06   119.40   115.19   111.12   107.41   103.58   100.06   96.72    
 93.49    90.28    87.30    84.43    81.69    78.82    75.99    72.92    70.20    67.32    
 64.82    62.10    59.55    57.08    54.67    52.33    49.87    47.15    44.50    41.91    
 39.27    36.39    32.64    30.26    27.76    22.71    20.51    14.95    9.16     8.04     
 7.78     8.13     8.60     9.11     9.62     10.14    10.68    11.26    11.89    12.63    
 13.43    14.26    15.17    16.22    17.38    18.69    20.15    21.70    23.36    25.22    
 27.33    29.45    31.69    33.97    36.41    38.89    41.51    44.15    46.97    49.87    
 48.72    
45478.50 47325.78 49093.54 50876.71 52507.49 54164.70 55650.44 56473.63 56857.79 56652.85 
 55139.92 53747.73 52661.46 51653.95 50659.10 49608.16 48687.75 47673.71 46486.51 45225.55 
 43819.66 42336.29 40828.18 39175.51 37593.82 36189.24 34898.43 33748.08 32619.67 31723.75 
 31046.39 30543.37 30126.11 29725.64 29281.21 28864.47 28447.97 28055.54 27620.33 27019.48 
 26312.85 25565.14 24801.02 24076.83 23353.00 22565.02 21624.10 20633.77 19691.21 18825.27 
 17966.27 17149.02 16364.23 15599.78 14935.69 14252.48 13561.07 12837.51 12117.69 11419.92 
 10722.31 10084.53 9448.71  8844.16  8232.20  7636.01  7044.84  6458.59  5784.57  5134.62  
 4575.57  4120.56  3714.66  3331.96  2957.21  2642.22  2285.56  2001.23  1766.72  1562.73  
 1363.87  1199.21  1067.02  935.07   838.24   755.22   683.57   619.46   572.09   531.25   
 492.09   452.20   413.52   381.08   350.92   324.75   303.08   284.60   268.90   254.90   
 242.44   231.17   221.14   212.48   203.92   195.79   188.79   182.47   176.60   170.77   
 165.21   160.13   155.09   150.59   146.44   142.38   138.67   134.97   131.35   127.67   
 123.98   120.69   117.33   113.81   110.39   107.33   104.21   100.82   97.65    94.43    
 91.21    88.23    85.07    82.10    79.17    76.19    73.55    70.64    67.80    64.98    
 62.15    58.76    56.07    53.59    51.22    49.07    47.05    44.15    41.02    37.59    
 35.08    30.89    29.06    26.55    25.14    21.63    12.90    11.88    11.28    11.00    
 10.62    10.66    11.41    12.34    13.36    14.46    15.60    16.79    18.23    19.85    
 21.68    23.70    25.88    28.19    30.64    33.27    36.01    39.15    42.50    46.13    
 48.72    
45478.50 47669.65 49748.56 51823.89 53933.81 55912.68 57000.11 57530.87 56472.50 55073.97 
 54021.12 53046.76 52279.93 51429.61 50287.68 48876.77 47409.17 45563.66 43590.34 41639.50 
 39805.84 38179.17 36783.33 35600.12 34792.56 34243.48 33869.49 33399.30 32920.30 32377.63 
 31864.48 31361.76 30838.29 30246.95 29314.69 28365.71 27356.06 26298.52 25255.59 24212.65 
 23169.47 22107.52 21168.86 20357.87 19623.55 18911.65 18204.79 17441.95 16720.46 15993.45 
 15279.26 14584.98 13891.67 13179.54 12462.12 11773.01 11108.07 10460.40 9832.15  9231.98  
 8670.54  8088.07  7478.27  6793.44  6176.14  5691.32  5241.23  4808.88  4399.42  4038.77  
 3683.71  3355.34  3050.97  2751.45  2452.86  2227.74  2012.71  1804.31  1593.42  1427.97  
 1276.24  1134.89  1002.42  903.63   814.61   737.04   668.21   609.90   564.02   525.43   
 489.04   452.98   416.22   379.50   349.28   322.10   299.86   281.85   266.83   254.38   
 243.88   233.40   225.31   218.23   211.66   206.04   200.76   195.81   191.10   186.82   
 182.54   178.28   174.33   170.15   166.34   162.38   157.86   153.28   148.64   143.86   
 139.32   134.63   130.26   126.04   122.35   119.08   115.89   113.26   110.14   107.11   
 104.17   101.25   98.08    95.41    92.81    90.07    87.25    84.35    81.53    78.22    
 74.30    70.31    66.14    61.99    59.19    56.78    55.03    53.37    52.96    50.79    
 49.44    47.91    45.31    41.98    39.41    37.52    35.07    32.22    30.10    28.57    
 13.53    11.57    11.61    11.69    11.94    12.86    14.03    15.26    16.55    17.88    
 19.35    21.05    22.91    24.95    27.28    29.95    32.79    35.98    39.64    43.60    
 48.72    
45478.50 47823.08 50159.90 52361.44 54625.58 56130.08 56871.05 55893.47 54625.46 53529.63 
 52598.29 51938.62 51098.44 49827.33 48170.96 46149.59 44071.45 41939.63 40101.05 38590.91 
 37167.24 36185.32 35545.09 35098.57 34673.54 34157.22 33679.94 33144.75 32591.79 31947.37 
 31123.38 30071.32 28917.87 27775.43 26740.41 25690.40 24612.43 23482.53 22398.94 21312.76 
 20222.57 19116.47 18276.29 17637.19 17075.38 16553.98 16036.90 15452.25 14819.33 14182.06 
 13518.72 12841.48 12179.98 11569.64 10959.79 10387.34 9850.28  9317.95  8777.59  8143.64  
 7415.40  6815.54  6344.55  5924.73  5478.43  5059.25  4664.49  4296.93  3936.86  3612.73  
 3280.01  2948.44  2699.83  2466.85  2243.28  2032.68  1830.65  1627.09  1466.22  1312.57  
 1192.10  1071.91  951.72   859.46   778.76   709.53   642.75   587.09   544.93   510.17   
 476.74   440.89   404.01   369.61   338.35   309.37   284.26   265.74   248.79   236.72   
 226.51   218.49   211.69   205.87   200.53   195.58   191.04   186.97   182.68   178.53   
 174.67   171.08   167.80   164.61   161.50   158.44   155.03   151.67   148.08   144.15   
 140.73   137.36   133.82   130.41   126.65   122.90   119.60   116.38   113.22   110.03   
 106.94   103.95   100.95   98.19    95.55    93.01    88.68    84.41    82.50    80.87    
 78.93    76.61    74.34    71.54    68.80    66.10    63.46    60.95    58.24    55.46    
 53.02    50.64    48.50    46.83    44.89    41.71    39.79    37.96    35.88    33.54    
 29.34    26.75    12.21    12.12    12.78    13.49    14.56    16.00    17.48    18.95    
 20.38    21.91    23.55    25.34    27.43    30.09    32.80    36.03    39.65    43.36    
 48.72    
45478.50 47814.44 50153.25 52397.65 54686.47 56054.31 56552.33 55239.75 54054.82 53047.19 
 52235.88 51610.42 50580.19 49144.73 47267.17 45182.45 42997.22 41014.12 39369.61 37901.94 
 36709.89 36086.97 35662.96 35300.44 34767.96 34270.76 33741.21 33155.71 32523.89 31667.93 
 30611.90 29442.69 28345.02 27263.74 26228.66 25072.66 23916.65 22758.72 21440.16 20215.43 
 19183.61 18464.22 17866.56 17331.25 16837.92 16322.83 15765.93 15170.13 14545.20 13901.75 
 13252.95 12626.59 11997.68 11357.66 10717.73 10175.14 9675.87  9132.72  8509.09  7803.02  
 7123.18  6653.97  6179.67  5747.99  5354.91  4945.36  4563.17  4183.81  3842.88  3524.98  
 3149.59  2871.47  2637.38  2403.61  2194.77  1984.19  1766.91  1581.39  1427.55  1282.40  
 1156.06  1037.11  933.42   840.10   757.91   688.28   624.67   567.66   524.50   490.14   
 457.25   423.95   388.26   356.31   322.28   294.49   269.01   251.18   233.35   215.61   
 205.48   197.94   191.72   186.46   181.87   177.89   174.17   170.80   167.35   163.95   
 160.58   157.42   154.49   151.86   149.44   146.94   144.69   142.45   140.21   137.83   
 134.60   131.74   129.01   126.11   123.24   120.35   117.41   114.58   111.80   109.11   
 106.43   103.85   101.23   98.54    95.93    93.36    90.79    87.74    81.89    79.73    
 77.87    76.19    74.27    72.01    69.52    66.96    64.56    62.25    59.87    57.60    
 55.07    52.88    51.03    49.12    47.42    45.64    43.93    42.06    40.43    38.74    
 33.17    29.00    19.80    12.99    13.69    14.45    15.94    17.65    19.40    21.19    
 22.88    24.54    26.20    27.84    29.58    31.93    34.49    37.48    41.02    44.94    
 48.72    
45478.50 47665.59 49910.64 52077.59 54125.99 55426.89 55863.09 54521.69 53394.77 52442.71 
 51688.50 51140.21 50232.35 48924.69 47232.65 45250.70 43115.12 41180.45 39494.91 38007.92 
 36613.05 35839.20 35341.80 34921.37 34489.79 34054.18 33591.03 33085.80 32535.75 31918.58 
 31073.22 30002.03 28850.27 27737.06 26679.18 25641.40 24505.56 23349.28 22184.24 21019.88 
 19902.60 18852.47 18069.79 17430.89 16907.12 16396.13 15865.61 15283.84 14666.30 14044.55 
 13424.47 12755.65 12125.57 11539.97 10954.79 10369.60 9857.48  9350.37  8813.83  8184.62  
 7464.25  6854.44  6385.32  5947.02  5530.88  5121.70  4726.52  4364.49  4001.96  3677.65  
 3366.39  3014.61  2762.82  2520.24  2297.22  2088.72  1885.92  1672.82  1510.18  1359.52  
 1222.90  1108.24  993.75   899.28   814.81   741.65   677.12   616.65   570.06   533.28   
 497.87   460.96   423.58   389.83   355.22   325.01   298.01   276.38   258.37   242.53   
 230.48   220.78   212.77   205.71   198.62   192.69   187.05   182.32   177.48   172.69   
 168.15   164.25   160.66   157.24   154.17   151.32   148.21   145.27   142.33   138.67   
 135.55   132.69   129.76   126.35   122.95   120.08   117.04   114.03   111.10   108.31   
 105.61   102.61   99.78    97.04    94.38    91.78    88.25    83.84    81.44    79.26    
 77.18    75.07    72.84    70.53    68.10    65.86    63.69    61.43    59.16    56.41    
 54.07    52.31    50.44    48.50    46.65    44.23    42.55    41.22    39.95    36.59    
 34.36    28.38    15.87    16.09    16.84    18.22    20.04    21.91    23.78    25.56    
 27.26    28.93    30.57    32.11    33.86    35.98    38.13    40.61    43.44    46.58    
 48.72    
45478.50 47389.52 49373.93 51281.37 53283.50 54710.42 55737.90 55438.95 54344.78 53469.45 
 52469.72 51551.32 50909.62 50172.15 48928.31 47509.85 45869.43 43973.54 41959.29 40159.68 
 38634.27 37220.38 35990.04 35087.42 34456.67 34002.27 33582.59 33123.69 32653.60 32226.60 
 31808.12 31348.87 30840.57 30134.56 29239.28 28210.99 27178.27 26102.70 25038.64 23956.90 
 22874.96 21778.11 20789.35 19947.40 19179.56 18368.17 17564.67 16827.54 16174.54 15530.05 
 14901.68 14262.78 13605.34 12922.87 12243.05 11576.90 10927.62 10298.58 9705.85  9133.75  
 8597.01  8034.46  7467.11  6832.04  6229.39  5733.47  5315.14  4881.59  4471.46  4098.62  
 3762.48  3446.01  3151.80  2862.65  2573.50  2285.12  2072.88  1865.18  1670.71  1475.19  
 1323.81  1179.85  1061.19  942.91   852.43   768.54   699.99   638.16   583.62   542.62   
 506.66   469.79   432.62   398.96   366.08   337.62   311.34   289.22   269.21   253.35   
 240.34   227.36   217.72   208.52   200.27   192.49   185.44   178.66   172.51   167.16   
 162.01   157.11   152.66   148.75   144.60   141.03   137.69   133.88   130.19   126.51   
 122.90   119.04   115.66   112.65   109.72   106.78   104.07   101.66   98.88    96.23    
 93.77    91.51    89.14    86.43    84.22    81.85    79.53    77.15    74.79    72.85    
 70.34    67.31    64.08    60.74    56.68    54.26    52.45    51.10    50.00    49.91    
 49.21    47.83    45.25    43.14    41.71    39.86    38.29    35.52    34.53    30.96    
 19.07    18.72    19.41    20.53    22.30    24.25    26.18    28.07    29.89    31.64    
 33.32    34.96    36.55    38.16    40.24    42.24    44.21    46.30    48.54    50.89    
 48.72    
45478.50 47020.58 48659.79 50183.56 51873.05 53392.98 54490.46 55077.14 54865.89 53857.86 
 52776.83 52001.05 51034.29 50050.43 49291.13 48440.61 47355.89 46158.24 44901.47 43423.65 
 41893.45 40238.94 38703.33 37168.77 35800.74 34511.56 33362.50 32387.70 31573.91 31005.35 
 30566.81 30210.73 29808.95 29441.60 29124.89 28796.99 28453.49 28094.38 27716.79 27179.54 
 26451.21 25701.68 24940.37 24151.85 23343.74 22423.18 21428.08 20416.88 19444.29 18572.77 
 17766.23 16992.77 16238.97 15531.77 14867.58 14242.48 13579.00 12891.96 12181.49 11691.65 
 10916.33 10138.82 9484.46  8878.36  8278.59  7678.89  7097.23  6540.45  5916.77  5271.32  
 4704.24  4235.60  3817.57  3431.31  3069.66  2747.86  2448.79  2107.95  1857.38  1651.56  
 1466.53  1285.60  1153.89  1022.55  891.22   800.39   721.44   656.23   597.70   550.68   
 512.16   474.57   438.37   400.67   368.79   337.97   312.01   288.50   269.33   251.50   
 236.01   222.31   210.07   198.51   188.87   178.77   170.43   162.96   156.35   150.21   
 144.74   139.58   134.68   129.65   125.71   121.77   117.83   114.46   111.42   108.21   
 105.38   102.64   99.91    97.05    94.48    91.91    89.36    86.96    84.63    82.32    
 79.85    77.30    74.93    72.56    70.22    67.99    65.73    63.52    61.38    59.15    
 56.83    54.40    52.10    49.54    47.27    45.34    43.87    41.33    39.51    37.64    
 35.70    34.32    30.65    29.53    29.52    22.28    19.30    20.34    21.50    22.15    
 23.51    25.28    27.09    28.86    30.59    32.27    33.88    35.44    36.98    38.44    
 39.87    41.31    43.16    44.97    46.74    48.39    50.11    51.92    53.70    55.47    
 48.72    
45478.50 46502.75 47653.86 48801.22 49957.70 51231.60 52365.64 53371.10 53930.31 54180.46 
 54174.18 53581.29 52477.02 51394.42 50521.55 49503.32 48543.68 47659.08 46633.73 45714.10 
 44749.05 43730.66 42761.91 41757.98 40704.45 39685.66 38676.38 37498.32 36349.33 35371.51 
 34262.69 33192.65 32069.25 30996.30 29961.86 28932.19 27984.11 27108.39 26176.01 25325.21 
 24547.97 23814.88 23082.27 22395.84 21743.99 21151.31 20583.10 20007.30 19449.00 18886.33 
 18252.66 17578.60 16881.75 16168.97 15498.46 14801.48 14146.38 13468.95 12782.64 12104.30 
 11440.02 10779.02 10164.62 9600.64  9083.65  8569.07  8084.26  7537.75  6984.72  6476.11  
 6000.25  5524.54  5061.85  4612.41  4164.11  3743.36  3279.67  2925.29  2570.90  2217.34  
 1937.35  1674.51  1401.45  1217.31  1057.37  914.87   808.75   720.18   653.78   601.95   
 558.04   519.85   478.60   438.13   399.56   365.70   336.99   309.77   284.95   262.78   
 244.18   225.58   207.03   192.84   180.30   168.63   158.23   148.83   140.75   133.93   
 127.69   121.98   116.69   111.73   106.85   102.65   99.06    95.80    92.61    89.38    
 86.24    83.43    80.24    77.48    74.89    72.13    69.48    67.09    64.73    62.33    
 59.77    57.34    54.91    52.65    50.49    48.33    46.30    44.31    42.48    40.76    
 38.68    36.59    33.93    31.52    29.62    27.93    25.58    18.87    17.57    17.77    
 18.96    20.38    21.85    23.34    24.87    26.37    27.90    29.40    30.88    32.35    
 33.79    35.21    36.60    37.97    39.30    40.61    41.89    43.18    44.45    46.19    
 47.73    49.24    50.73    52.12    53.51    54.94    56.41    57.84    59.31    60.59    
 48.72    
45478.50 45991.70 46578.62 47281.18 47980.80 48621.10 49193.80 49562.94 49799.93 49863.35 
 50086.10 50283.46 50327.26 50270.09 50135.41 49927.25 49478.04 49018.17 48531.42 47994.63 
 47419.08 46605.65 45590.84 44597.30 43439.10 42409.93 41496.87 40556.56 39502.51 38493.25 
 37610.79 36725.70 35821.43 34832.68 33820.21 32734.70 31683.10 30650.95 29682.97 28743.45 
 27750.63 26745.80 25748.52 24870.05 23965.84 23023.06 22118.30 21252.19 20355.71 19435.98 
 18518.57 17625.48 16797.71 15974.39 15177.93 14393.20 13627.73 12912.25 12247.04 11509.37 
 10836.81 10164.75 9524.96  8901.79  8277.99  7646.04  7069.16  6553.38  6041.22  5522.10  
 5021.19  4513.82  4047.73  3629.95  3242.52  2868.59  2559.23  2283.09  2009.96  1767.54  
 1547.93  1372.04  1207.39  1067.54  927.87   823.00   729.20   646.04   582.95   526.75   
 473.15   432.42   391.20   350.53   312.13   278.52   250.24   226.08   203.45   183.97   
 166.62   152.12   139.03   127.04   116.95   106.87   99.17    92.14    85.78    80.29    
 75.51    71.15    67.06    63.21    60.10    56.78    53.61    50.80    48.13    45.74    
 43.10    40.20    37.81    35.67    33.60    31.45    29.31    27.15    25.10    22.84    
 20.60    17.70    14.93    13.70    13.43    13.85    14.79    15.79    16.82    17.87    
 18.96    20.07    21.19    22.33    23.51    24.71    25.91    27.13    28.35    29.59    
 30.82    32.02    33.21    34.43    35.66    36.85    38.04    39.26    40.46    41.64    
 42.83    44.00    45.16    46.36    47.54    48.72    49.91    51.11    53.37    54.57    
 55.77    56.98    58.19    59.40    60.58    61.80    63.00    64.12    65.19    66.19    
 48.72    
45478.50 45468.21 45468.13 45624.51 45798.59 45948.36 45610.10 45105.54 44895.27 44504.39 
 43939.08 43499.96 42938.07 42418.89 41944.30 41438.10 40676.90 40179.12 39656.73 39266.08 
 38468.62 37698.30 36912.34 36262.43 35830.51 35012.06 34289.70 33358.33 32466.29 31722.85 
 30749.09 29868.58 28837.04 27923.88 26863.84 25798.13 24676.24 23718.16 22680.40 21582.98 
 20500.81 19482.88 18437.72 17380.20 16330.56 15285.02 14463.95 13521.11 12617.02 11794.80 
 10973.43 10152.06 9201.82  8425.32  7708.19  7042.50  6357.50  5830.72  5284.58  4707.72  
 4197.62  3734.62  3328.84  2961.92  2635.66  2324.51  2026.52  1769.71  1544.24  1346.34  
 1172.76  999.43   826.10   695.22   573.57   475.45   381.63   302.47   238.25   186.59   
 145.52   110.73   76.02    59.41    47.05    35.67    17.44    4.09     3.66     3.55     
 3.51     3.46     3.47     3.45     3.37     3.56     3.77     4.01     4.28     4.56     
 4.87     5.20     5.55     5.95     6.38     6.83     7.31     7.80     8.32     8.89     
 9.48     10.12    10.79    11.49    12.23    13.01    13.80    14.63    15.50    16.40    
 17.32    18.26    19.25    20.26    21.27    22.31    23.44    24.57    25.73    26.87    
 28.06    29.25    30.48    31.72    32.98    34.23    35.44    36.61    37.69    38.83    
 39.95    41.03    42.17    43.29    44.30    45.31    46.33    47.29    48.23    49.22    
 50.22    51.15    52.05    52.90    53.70    54.49    55.24    55.96    56.61    57.23    
 57.82    58.36    58.87    59.36    59.82    60.21    60.80    62.04    62.39    62.67    
 62.84    62.94    62.95    62.87    62.66    62.33    61.86    61.30    60.72    59.96    
 48.72    
45478.50 44769.49 44184.04 43925.41 43783.48 43646.44 43179.14 42636.54 41802.84 41480.19 
 40363.37 39624.33 38798.15 36249.39 34536.87 31894.08 29977.72 28361.38 27416.23 25681.60 
 24111.69 22543.28 21165.97 20058.93 18296.96 16687.99 14590.03 13096.02 11726.85 10876.30 
 9617.50  8423.87  7127.58  6120.85  5538.10  4623.49  3872.07  3267.42  2706.73  2146.59  
 1645.21  1217.35  963.43   740.03   568.43   409.04   333.76   258.49   183.58   149.87   
 122.07   104.44   90.40    77.01    64.38    55.59    48.82    43.14    38.64    34.33    
 30.71    27.67    24.94    22.72    20.58    18.53    15.96    13.94    13.05    12.67    
 12.26    11.97    11.73    11.47    11.19    10.84    10.48    10.11    9.91     9.63     
 9.03     8.39     7.52     6.19     4.76     3.05     2.73     2.90     3.11     3.33     
 3.58     3.85     4.15     4.47     4.84     5.21     5.61     6.03     6.52     7.03     
 7.56     8.09     8.66     9.25     9.87     10.53    11.23    11.95    12.68    13.46    
 14.30    15.18    16.09    17.00    18.00    19.02    20.09    21.18    22.24    23.33    
 24.44    25.59    26.78    27.96    29.12    30.31    31.53    32.79    34.04    35.31    
 36.60    37.88    39.17    40.44    41.69    42.93    44.19    45.42    46.59    47.73    
 48.87    49.96    51.02    52.02    53.02    54.01    55.00    55.98    56.96    57.91    
 58.84    59.70    60.53    61.34    62.09    62.76    63.35    63.85    64.30    64.68    
 64.99    65.23    65.44    65.60    65.75    65.83    65.82    66.76    66.65    66.43    
 66.09    65.64    65.09    64.36    63.50    62.48    61.27    59.94    58.54    57.07    
 48.72    
45478.50 44243.19 43481.06 43014.00 42759.49 42600.26 42409.38 38957.83 34850.56 32010.79 
 30196.00 27302.49 25173.35 22654.31 19490.62 16948.47 16075.15 13355.70 11474.13 9603.31  
 7732.49  6213.31  5146.55  2601.40  1293.72  985.22   687.30   509.14   382.87   282.51   
 211.04   164.94   140.74   126.54   112.45   98.35    86.59    77.43    70.04    63.11    
 56.75    50.88    45.12    40.34    36.04    32.25    29.39    26.58    24.14    21.77    
 19.33    16.71    14.86    13.60    12.78    12.07    11.44    10.77    10.16    9.64     
 9.14     8.62     8.12     7.66     7.19     6.88     6.58     6.26     5.96     5.73     
 5.54     5.37     5.12     4.88     4.65     4.50     4.31     4.10     3.88     3.70     
 3.53     3.34     3.17     3.07     3.06     3.23     3.45     3.69     3.96     4.24     
 4.55     4.90     5.27     5.67     6.11     6.57     7.08     7.61     8.18     8.78     
 9.42     10.10    10.82    11.56    12.33    13.17    14.02    14.90    15.80    16.72    
 17.71    18.71    19.71    20.77    21.87    23.00    24.13    25.27    26.48    27.69    
 28.92    30.16    31.48    32.78    34.10    35.41    36.75    38.17    39.56    40.99    
 42.40    43.81    45.20    46.63    48.11    49.58    51.01    52.42    53.82    55.25    
 56.70    58.12    59.51    60.89    62.25    63.63    64.98    66.26    67.46    68.56    
 69.62    70.62    71.58    72.43    73.23    73.90    74.46    74.92    75.25    75.48    
 75.63    75.74    75.67    75.49    75.20    74.82    74.32    73.66    72.89    72.06    
 71.10    69.99    68.70    67.26    65.68    63.83    61.82    59.76    57.42    55.03    
 48.72    
45478.50 43722.57 42802.57 42110.32 41761.29 39513.40 34791.10 32204.20 28918.48 25214.21 
 21510.72 17921.06 16216.35 12000.57 10213.98 7465.94  5268.40  3070.87  892.13   597.04   
 488.70   376.30   315.45   267.36   219.38   183.75   167.64   127.51   98.65    81.67    
 68.89    61.02    55.49    51.14    47.71    44.73    41.80    38.99    37.19    34.65    
 31.97    28.80    26.59    24.76    23.84    23.37    22.63    21.48    20.35    19.18    
 17.76    16.49    15.20    13.76    12.26    10.99    10.04    9.38     8.87     8.29     
 7.64     7.11     6.62     6.15     5.72     5.33     4.96     4.57     4.31     4.09     
 3.92     3.77     3.64     3.52     3.41     3.33     3.27     3.22     3.19     3.20     
 3.21     3.26     3.34     3.46     3.62     3.79     3.97     4.16     4.36     4.58     
 4.82     5.07     5.34     5.65     6.00     6.39     6.79     7.23     7.72     8.25     
 8.80     9.36     9.93     10.58    11.24    11.95    12.71    13.48    14.25    15.09    
 15.97    16.91    17.84    18.78    19.78    20.80    21.85    22.93    23.97    25.04    
 26.11    27.26    28.43    29.61    30.76    31.96    33.19    34.48    35.79    37.11    
 38.50    39.89    41.35    42.83    44.34    45.91    47.54    49.21    50.88    52.60    
 54.43    56.23    58.03    59.85    61.62    63.45    65.20    66.94    68.59    70.21    
 71.77    73.29    74.71    76.10    77.40    78.53    79.52    80.32    80.95    81.43    
 81.76    81.84    81.75    81.46    80.98    80.31    79.52    78.41    77.24    75.90    
 74.40    72.67    70.79    68.70    66.46    64.06    61.44    58.73    55.91    52.81    
 48.72    
45478.50 43510.52 42475.12 41798.70 39882.57 33969.81 30665.84 27103.23 23108.57 18752.29 
 15857.87 11614.25 9063.10  6531.04  1803.64  1073.96  386.20   320.12   196.17   198.68   
 156.72   173.54   135.87   118.02   100.40   79.75    84.30    78.49    76.32    68.44    
 58.26    59.84    57.16    59.94    49.44    41.54    44.31    35.65    40.22    42.45    
 36.48    40.20    35.93    38.75    33.19    31.03    28.37    28.51    27.29    21.75    
 22.58    20.81    19.36    13.78    10.34    9.16     9.01     9.00     8.20     7.47     
 6.83     6.25     5.69     5.16     4.67     4.26     3.90     3.59     3.33     3.09     
 2.89     2.73     2.61     2.54     2.49     2.45     2.43     2.43     2.43     2.44     
 2.50     2.58     2.67     2.78     2.90     3.05     3.21     3.37     3.54     3.73     
 3.94     4.16     4.39     4.65     4.96     5.28     5.63     6.03     6.46     6.94     
 7.44     7.94     8.48     9.09     9.71     10.37    11.06    11.79    12.54    13.33    
 14.13    15.00    15.88    16.80    17.75    18.74    19.74    20.79    21.89    23.00    
 24.12    25.29    26.46    27.66    28.83    30.03    31.24    32.47    33.69    34.88    
 36.10    37.37    38.65    39.97    41.33    42.71    44.21    45.79    47.41    49.07    
 50.75    52.48    54.27    56.18    58.15    60.15    62.19    64.29    66.40    68.47    
 70.50    72.40    74.26    75.96    77.62    79.12    80.49    81.76    82.94    83.92    
 84.66    85.19    85.43    85.40    85.03    84.39    83.42    82.15    80.67    78.94    
 76.93    74.70    72.30    69.58    66.82    63.89    60.86    57.69    54.39    50.91    
 48.72    
45478.50 43167.36 41981.06 41243.57 38264.63 32199.43 28554.45 23932.17 19325.37 16760.75 
 11505.89 8674.11  6968.19  5262.27  3556.34  1850.42  160.25   130.23   121.07   121.20   
 89.14    56.85    40.68    35.64    26.99    22.59    19.77    17.78    15.95    14.62    
 13.97    13.11    12.15    11.19    10.19    9.45     8.97     8.62     8.33     8.03     
 7.66     7.29     6.95     6.61     6.37     6.06     5.74     5.47     5.24     4.93     
 4.68     4.43     4.18     3.94     3.74     3.51     3.27     3.06     2.90     2.77     
 2.66     2.56     2.48     2.42     2.34     2.28     2.23     2.17     2.14     2.10     
 2.07     2.05     2.03     2.03     2.03     2.03     2.04     2.05     2.07     2.10     
 2.15     2.21     2.28     2.36     2.45     2.56     2.66     2.78     2.91     3.05     
 3.21     3.38     3.54     3.74     3.96     4.20     4.45     4.75     5.09     5.46     
 5.87     6.30     6.78     7.29     7.81     8.37     8.95     9.56     10.17    10.82    
 11.51    12.23    12.97    13.71    14.47    15.30    16.17    17.09    17.98    18.97    
 19.98    21.05    22.18    23.35    24.52    25.77    27.07    28.42    29.80    31.18    
 32.51    33.90    35.30    36.71    38.10    39.49    40.93    42.35    43.79    45.28    
 46.86    48.49    50.18    51.97    53.78    55.68    57.64    59.66    61.75    63.94    
 66.23    68.52    70.77    73.06    75.25    77.31    79.22    80.92    82.47    83.82    
 85.02    86.01    86.69    87.05    87.03    86.66    85.88    84.70    83.15    81.30    
 79.15    76.73    74.05    71.12    67.98    64.66    61.23    57.76    54.21    50.66    
 48.72    
45478.50 43134.67 41920.39 41190.18 37562.14 31967.74 27683.76 23436.42 18263.04 14836.39 
 11132.69 7425.51  3718.34  1909.07  120.54   69.13    35.84    26.21    20.52    17.17    
 14.94    12.99    11.50    10.62    9.89     9.22     8.50     7.93     7.44     7.15     
 7.09     6.88     6.43     5.80     5.27     5.09     4.96     4.92     4.71     4.67     
 4.62     4.51     4.25     4.15     4.11     4.10     4.09     4.05     3.95     3.81     
 3.72     3.64     3.57     3.49     3.43     3.32     3.19     3.10     3.04     2.94     
 2.89     2.88     2.85     2.78     2.72     2.65     2.57     2.51     2.45     2.41     
 2.39     2.36     2.34     2.31     2.29     2.28     2.28     2.28     2.29     2.34     
 2.40     2.46     2.53     2.63     2.80     2.96     3.09     3.21     3.33     3.46     
 3.61     3.76     3.94     4.12     4.29     4.47     4.69     4.93     5.21     5.52     
 5.89     6.28     6.70     7.19     7.68     8.18     8.73     9.31     9.91     10.53    
 11.18    11.86    12.55    13.27    13.99    14.74    15.52    16.30    17.13    18.01    
 18.92    19.90    20.92    22.01    23.14    24.36    25.65    26.98    28.33    29.71    
 31.11    32.56    34.03    35.53    36.99    38.43    39.90    41.36    42.82    44.27    
 45.72    47.20    48.77    50.47    52.28    54.11    55.98    57.90    59.86    62.01    
 64.32    66.66    69.01    71.29    73.48    75.56    77.61    79.54    81.21    82.65    
 83.86    84.91    85.70    86.12    86.17    85.82    85.05    83.88    82.27    80.31    
 78.09    75.58    72.88    70.08    67.14    64.15    61.21    58.26    55.27    52.11    
 48.72    
