IESNA:LM-63-2002
[TEST] 1
[TESTLAB] AOK
[TESTDATE] 2022-07-02
[ISSUEDATE] 2022-07-02 16:24:03
[NEARFIELD] 
[LAMPPOSITION] 0,0
[OTHER] EVERFINE GO-2000A_V1 SYSTEM
[MANUFAC] AOK
[LUMCAT] A
[LUMINAIRE] AOK-800WiSF-NV-S35-00-5070-2030D-P
[LAMPCAT] B
[LAMP] 3535
[BALLAST] E
[BALLASTCAT] F
[OTHER] 
[OTHER] Gamma(deg)    Fz(lm)      Ft(lm)     %Lum    %Lamp
[OTHER]   0- 10     30916.24    30916.24    30.96    30.96
[OTHER]  10- 20     35745.36    66661.61    66.76    66.76
[OTHER]  20- 30     14975.26    81636.86    81.76    81.76
[OTHER]  30- 40      6590.24    88227.10    88.36    88.36
[OTHER]  40- 50      3961.15    92188.26    92.33    92.33
[OTHER]  50- 60      3026.46    95214.72    95.36    95.36
[OTHER]  60- 70      2053.50    97268.21    97.42    97.42
[OTHER]  70- 80      1111.56    98379.77    98.53    98.53
[OTHER]  80- 90       518.23    98898.00    99.05    99.05
[OTHER]  90-100       281.40    99179.40    99.33    99.33
[OTHER] 100-110       188.74    99368.14    99.52    99.52
[OTHER] 110-120       137.70    99505.84    99.66    99.66
[OTHER] 120-130        96.72    99602.56    99.75    99.75
[OTHER] 130-140        63.38    99665.94    99.82    99.82
[OTHER] 140-150        47.37    99713.31    99.87    99.87
[OTHER] 150-160        55.34    99768.65    99.92    99.92
[OTHER] 160-170        57.16    99825.81    99.98    99.98
[OTHER] 170-180        21.38    99847.19   100.00   100.00
[OTHER] 
TILT=NONE
1 99847 1 181 25 1 2 0.150 0.200 0.000
1.000 1 751.837
0.0    1.0    2.0    3.0    4.0    5.0    6.0    7.0    8.0    9.0    
 10.0   11.0   12.0   13.0   14.0   15.0   16.0   17.0   18.0   19.0   
 20.0   21.0   22.0   23.0   24.0   25.0   26.0   27.0   28.0   29.0   
 30.0   31.0   32.0   33.0   34.0   35.0   36.0   37.0   38.0   39.0   
 40.0   41.0   42.0   43.0   44.0   45.0   46.0   47.0   48.0   49.0   
 50.0   51.0   52.0   53.0   54.0   55.0   56.0   57.0   58.0   59.0   
 60.0   61.0   62.0   63.0   64.0   65.0   66.0   67.0   68.0   69.0   
 70.0   71.0   72.0   73.0   74.0   75.0   76.0   77.0   78.0   79.0   
 80.0   81.0   82.0   83.0   84.0   85.0   86.0   87.0   88.0   89.0   
 90.0   91.0   92.0   93.0   94.0   95.0   96.0   97.0   98.0   99.0   
 100.0  101.0  102.0  103.0  104.0  105.0  106.0  107.0  108.0  109.0  
 110.0  111.0  112.0  113.0  114.0  115.0  116.0  117.0  118.0  119.0  
 120.0  121.0  122.0  123.0  124.0  125.0  126.0  127.0  128.0  129.0  
 130.0  131.0  132.0  133.0  134.0  135.0  136.0  137.0  138.0  139.0  
 140.0  141.0  142.0  143.0  144.0  145.0  146.0  147.0  148.0  149.0  
 150.0  151.0  152.0  153.0  154.0  155.0  156.0  157.0  158.0  159.0  
 160.0  161.0  162.0  163.0  164.0  165.0  166.0  167.0  168.0  169.0  
 170.0  171.0  172.0  173.0  174.0  175.0  176.0  177.0  178.0  179.0  
 180.0  
0.0    15.0   30.0   45.0   60.0   75.0   90.0   105.0  120.0  135.0  
 150.0  165.0  180.0  195.0  210.0  225.0  240.0  255.0  270.0  285.0  
 300.0  315.0  330.0  345.0  360.0  
421318.31 421419.99 417196.82 407676.09 369862.35 325713.90 286703.80 235502.30 190061.95 142919.08 
 113375.98 84038.50 54701.03 47032.25 41556.87 37392.75 34099.62 26676.32 22354.69 17383.11 
 11638.74 7623.77  3629.20  1628.62  1086.63  560.41   34.19    21.63    17.94    16.68    
 15.85    14.40    13.42    12.49    11.61    10.44    9.53     8.73     8.26     8.16     
 8.01     7.84     7.66     7.46     6.94     6.59     6.36     5.96     5.53     5.35     
 5.03     4.79     4.61     4.51     4.37     4.27     4.11     4.04     4.00     3.98     
 3.96     3.94     3.91     3.90     3.90     3.90     3.88     3.87     3.86     3.84     
 3.82     3.79     3.76     3.73     3.71     3.67     3.65     3.63     3.61     3.58     
 3.58     3.58     3.57     3.57     3.58     3.62     3.64     3.69     3.77     3.85     
 3.94     4.06     4.18     4.33     4.48     4.64     4.81     5.00     5.19     5.40     
 5.60     5.81     6.04     6.28     6.55     6.82     7.09     7.37     7.66     7.96     
 8.28     8.61     8.95     9.31     9.67     10.07    10.47    10.90    11.35    11.81    
 12.30    12.79    13.31    13.85    14.42    15.03    15.67    16.35    17.09    17.87    
 18.74    19.69    20.73    21.93    23.34    24.97    27.01    29.41    32.17    35.33    
 38.82    42.66    46.94    51.79    57.11    62.93    69.28    76.41    84.54    94.49    
 106.30   119.63   134.42   150.30   167.13   185.15   205.43   225.81   245.93   266.05   
 284.69   303.23   320.05   334.48   346.78   355.53   361.00   363.13   361.87   357.59   
 350.92   342.84   332.98   322.14   310.23   297.23   283.01   267.75   251.57   233.66   
 214.94   
421318.31 422280.00 418720.42 410562.44 389141.51 339852.78 302291.15 256515.55 210732.82 164050.88 
 124212.27 92963.25 61463.95 50012.87 43228.64 38112.19 34269.30 29410.70 24552.10 19699.14 
 15597.08 10381.86 6135.87  4243.92  2351.97  475.31   311.47   149.04   136.26   96.06    
 75.34    87.46    58.75    34.34    24.95    20.55    18.17    16.61    15.62    14.67    
 14.16    13.38    12.44    11.61    10.80    9.96     9.04     7.98     7.26     6.74     
 6.27     5.97     5.76     5.50     5.24     5.02     5.09     5.30     5.34     5.32     
 5.20     5.06     4.90     4.75     4.61     4.48     4.36     4.21     4.07     3.95     
 3.83     3.73     3.68     3.62     3.56     3.49     3.42     3.35     3.29     3.22     
 3.19     3.19     3.20     3.23     3.27     3.31     3.35     3.41     3.49     3.58     
 3.69     3.82     3.96     4.11     4.27     4.45     4.62     4.81     5.01     5.23     
 5.46     5.68     5.92     6.18     6.45     6.73     7.01     7.31     7.60     7.91     
 8.22     8.55     8.91     9.26     9.62     10.00    10.42    10.85    11.28    11.74    
 12.23    12.75    13.29    13.83    14.39    14.98    15.62    16.29    17.02    17.79    
 18.62    19.57    20.66    21.92    23.44    25.25    27.49    30.10    32.96    36.30    
 40.13    44.26    48.75    53.67    59.04    65.20    72.00    79.66    88.37    98.60    
 110.03   123.93   137.85   153.96   171.19   189.13   208.24   227.09   246.59   265.43   
 283.83   301.18   317.35   331.54   342.16   350.18   354.91   356.24   354.43   349.79   
 343.14   334.58   325.15   314.41   302.92   290.26   276.38   261.62   246.04   229.49   
 214.94   
421318.31 422171.41 418968.47 412073.34 401132.88 367309.23 323900.85 286826.80 244091.24 200414.39 
 160055.03 124212.44 97220.27 70326.38 52055.65 44341.09 38705.44 34003.94 30176.42 26842.35 
 20150.25 16608.44 12593.28 9663.29  6745.56  4069.39  2258.48  1040.64  712.76   396.20   
 235.00   192.29   159.66   132.61   105.61   78.62    63.00    48.56    41.38    35.60    
 31.97    28.29    25.87    23.60    21.57    19.16    17.32    15.99    14.57    12.88    
 10.64    9.91     9.26     8.58     7.81     7.32     7.22     7.20     7.11     6.88     
 6.56     6.25     6.03     5.84     5.67     5.52     5.38     5.22     5.08     4.94     
 4.75     4.57     4.40     4.23     4.06     3.87     3.71     3.55     3.42     3.29     
 3.19     3.12     3.10     3.11     3.17     3.24     3.32     3.42     3.52     3.63     
 3.77     3.92     4.07     4.22     4.40     4.59     4.79     5.01     5.24     5.48     
 5.72     5.98     6.24     6.51     6.79     7.08     7.38     7.69     8.01     8.35     
 8.69     9.05     9.43     9.80     10.21    10.62    11.03    11.47    11.91    12.38    
 12.85    13.35    13.85    14.41    14.99    15.63    16.33    17.08    17.93    18.90    
 20.01    21.36    22.89    24.72    26.79    29.15    31.86    34.93    38.26    41.97    
 45.89    50.37    55.43    60.93    67.00    73.95    81.79    90.51    100.16   111.33   
 123.73   136.97   151.03   166.01   182.72   199.84   216.90   234.65   252.40   270.02   
 286.73   301.48   314.19   325.61   334.04   339.58   342.67   343.10   340.90   336.55   
 330.67   323.47   315.26   305.73   294.82   282.90   269.75   255.69   241.48   226.33   
 214.94   
421318.31 422292.98 419900.72 414685.35 405165.27 390228.34 361728.92 324423.17 292639.49 254568.32 
 216497.15 178523.95 152373.16 119123.16 98881.91 77959.21 60723.00 45161.04 37969.28 32619.78 
 27990.59 24722.19 21458.87 18813.86 15802.28 11904.34 9086.84  7299.19  5325.77  3844.29  
 2802.24  1762.61  1040.61  620.26   431.75   337.08   242.40   148.33   120.63   99.43    
 80.79    68.23    59.17    50.20    43.73    37.98    33.85    30.12    26.85    24.39    
 22.55    20.88    19.54    17.97    15.65    11.75    10.19    9.92     9.62     9.32     
 8.91     8.54     8.21     7.92     7.65     7.36     7.10     6.86     6.63     6.39     
 6.14     5.90     5.65     5.40     5.11     4.80     4.48     4.14     3.84     3.56     
 3.32     3.10     2.98     2.99     3.05     3.14     3.23     3.34     3.45     3.57     
 3.73     3.88     4.04     4.22     4.41     4.62     4.84     5.07     5.31     5.56     
 5.82     6.08     6.37     6.68     6.99     7.32     7.63     7.97     8.31     8.65     
 9.00     9.35     9.72     10.09    10.49    10.90    11.34    11.80    12.28    12.77    
 13.29    13.84    14.46    15.12    15.83    16.64    17.61    18.65    19.83    21.15    
 22.66    24.31    26.16    28.25    30.49    33.03    35.92    39.16    42.59    46.56    
 51.12    56.24    61.90    68.30    75.40    83.51    92.40    102.10   112.71   125.09   
 137.48   150.96   164.45   179.34   194.53   209.85   225.56   240.70   255.83   269.88   
 283.08   294.67   304.93   313.32   319.64   324.04   326.39   326.85   325.53   322.54   
 318.06   312.14   304.78   296.10   286.33   275.38   263.43   251.24   238.33   225.10   
 214.94   
421318.31 421261.88 418839.64 413572.84 403033.91 387279.71 374243.78 358706.37 338300.91 304949.28 
 269500.48 240495.75 211326.74 183742.79 157486.39 130529.12 110281.12 90101.45 69921.79 55481.17 
 43226.52 35443.83 29394.09 23728.43 21104.86 18494.82 16575.00 14675.52 12992.73 11446.59 
 9902.13  8357.67  6893.81  5354.55  4267.80  3293.51  2543.19  2010.47  1599.42  1251.89  
 962.28   673.39   466.92   332.90   234.91   179.12   144.66   122.72   100.92   79.12    
 67.39    58.94    52.82    46.74    41.29    37.65    34.49    31.55    29.15    27.05    
 24.71    22.49    19.52    14.30    12.64    11.77    11.24    10.64    10.04    9.53     
 9.08     8.62     8.25     7.86     7.42     7.02     6.58     6.09     5.55     4.98     
 4.43     3.94     3.52     3.36     3.35     3.44     3.54     3.64     3.76     3.89     
 4.04     4.20     4.36     4.56     4.76     4.97     5.21     5.44     5.69     5.96     
 6.24     6.52     6.83     7.14     7.47     7.79     8.14     8.49     8.86     9.23     
 9.60     9.99     10.41    10.83    11.28    11.74    12.22    12.72    13.23    13.81    
 14.44    15.12    15.90    16.72    17.63    18.60    19.69    20.93    22.28    23.73    
 25.29    27.09    29.11    31.35    33.87    36.70    39.96    43.78    48.12    53.00    
 58.51    64.60    71.55    79.44    87.96    97.15    107.09   117.87   129.47   141.43   
 153.92   166.81   180.04   193.53   206.99   220.13   233.03   245.93   258.83   269.62   
 279.47   288.24   295.63   301.85   306.82   310.12   312.02   312.38   311.26   308.61   
 304.69   299.36   292.94   285.57   277.32   268.35   258.82   248.33   237.44   225.85   
 214.94   
421318.31 420384.70 418158.67 413658.89 403940.79 388888.28 377098.22 361642.84 345150.36 327368.32 
 308277.41 289749.72 267114.14 243350.77 219552.12 191843.04 165745.73 137906.66 112305.30 91373.75 
 75369.90 62889.45 53275.60 45032.29 39480.72 34912.80 31016.89 27190.66 24434.46 21681.94 
 19300.76 16889.83 14500.89 12602.82 10874.70 9370.47  8079.66  7004.22  6137.66  5429.68  
 4842.89  4342.29  3939.90  3582.05  3246.74  2906.92  2605.82  2304.79  2012.49  1730.66  
 1442.13  1160.60  903.17   695.21   538.95   431.79   351.29   297.90   244.50   191.28   
 157.09   129.04   106.85   90.43    77.51    66.14    56.14    47.50    41.33    36.29    
 31.71    28.17    25.14    21.70    15.95    14.43    13.34    11.99    10.82    9.73     
 8.58     7.16     5.42     3.88     3.06     3.08     3.15     3.23     3.32     3.42     
 3.52     3.65     3.79     3.95     4.13     4.33     4.53     4.76     5.01     5.26     
 5.52     5.77     6.05     6.35     6.67     7.01     7.36     7.73     8.12     8.52     
 8.93     9.37     9.81     10.26    10.75    11.25    11.77    12.32    12.90    13.51    
 14.16    14.92    15.80    16.79    17.82    18.97    20.34    21.84    23.44    25.14    
 27.02    29.10    31.42    33.92    36.69    39.87    43.68    47.92    52.51    57.62    
 63.27    70.09    77.59    85.86    94.90    104.82   115.14   126.86   138.59   150.63   
 162.88   175.34   187.42   199.89   211.84   223.61   235.02   245.65   256.10   265.72   
 274.51   282.42   289.45   295.57   300.72   304.68   307.43   308.64   308.68   307.40   
 304.89   301.17   296.65   290.60   283.72   275.93   267.61   258.35   248.46   238.39   
 214.94   
421318.31 418693.49 415428.41 411012.64 402062.80 387734.63 375773.63 361987.72 346387.87 329250.50 
 311797.91 294183.35 272537.80 248263.53 223989.28 199681.94 172647.80 147196.80 125019.20 105717.50 
 89705.38 76316.64 66182.73 57522.03 50546.74 44624.69 39980.29 36047.72 32682.92 29636.68 
 26710.43 24026.89 21346.44 18955.90 16683.21 14785.92 13094.84 11715.95 10609.68 9689.29  
 8938.38  8316.02  7802.09  7321.57  6880.35  6470.03  6122.35  5797.52  5490.97  5185.09  
 4868.54  4555.28  4220.81  3902.98  3614.91  3365.47  3122.26  2902.98  2691.66  2480.63  
 2294.37  2119.58  1949.65  1794.80  1644.24  1505.64  1370.90  1236.68  1110.78  998.16   
 887.80   786.93   694.23   608.65   528.26   453.75   386.63   324.79   276.89   228.99   
 181.21   143.52   111.90   84.79    53.38    21.14    4.68     3.29     2.85     2.60     
 2.35     2.27     2.21     2.15     2.08     2.02     1.77     1.64     1.65     1.63     
 1.63     1.63     1.64     1.71     1.79     1.85     1.93     1.96     2.02     2.07     
 2.08     2.16     2.26     2.35     2.48     2.64     2.80     2.95     3.04     3.14     
 3.24     3.35     3.48     3.65     3.84     4.07     4.34     4.63     4.95     5.32     
 5.73     6.22     6.76     7.31     7.92     8.60     9.39     10.28    11.35    12.49    
 13.76    15.24    16.95    18.80    20.80    23.06    25.49    28.01    30.70    33.53    
 36.44    39.38    42.52    45.79    49.21    52.80    56.51    60.42    64.59    68.94    
 73.30    77.90    82.78    87.80    93.04    98.54    104.36   110.73   117.58   125.52   
 133.47   142.13   151.56   161.30   171.69   182.64   193.81   204.88   215.87   226.65   
 214.94   
421318.31 418228.79 414422.01 409269.69 400283.55 386299.66 373460.47 359374.13 343623.22 324865.83 
 304388.48 283108.62 260325.40 237569.04 213788.50 190472.84 168010.51 145847.26 124630.93 108081.75 
 91576.49 75071.23 64983.36 57269.07 51192.09 46427.62 42390.20 38887.79 35540.90 32340.94 
 29484.41 26611.46 23754.06 21203.65 18844.81 16877.23 15078.22 13493.17 12247.97 11459.78 
 10676.16 9892.55  9379.91  8909.26  8524.31  8173.62  7857.93  7554.10  7275.11  6989.13  
 6725.78  6482.20  6236.01  5973.07  5702.79  5424.47  5144.88  4870.46  4594.50  4334.49  
 4095.36  3878.55  3672.87  3484.82  3297.35  3119.05  2942.82  2773.79  2609.61  2448.27  
 2298.52  2160.84  2024.03  1888.84  1764.42  1649.28  1541.79  1438.37  1336.57  1241.97  
 1159.60  1077.33  995.05   921.51   851.44   784.45   722.90   667.83   616.98   571.97   
 533.93   494.91   457.35   422.98   390.48   360.31   331.19   304.66   280.90   259.27   
 238.17   219.18   200.68   183.52   167.27   151.37   136.46   123.03   109.62   96.21    
 84.88    74.91    66.58    57.65    49.38    41.74    34.76    29.36    25.06    14.08    
 5.06     3.82     3.74     3.75     3.90     4.06     4.26     4.50     4.78     5.15     
 5.88     6.60     7.38     8.18     9.46     10.79    10.49    10.42    10.97    11.98    
 12.91    14.08    15.41    17.49    19.49    21.15    23.05    25.22    27.45    29.93    
 32.53    35.22    37.10    39.34    42.33    45.31    48.36    51.55    54.76    58.18    
 61.77    65.53    69.43    73.63    77.99    82.86    88.21    94.10    100.87   108.28   
 115.04   124.18   134.54   145.80   157.52   170.31   183.56   197.14   210.54   224.10   
 214.94   
421318.31 417889.18 413184.10 406762.22 397863.68 385308.73 368942.17 351999.11 332875.01 310086.81 
 283930.12 258772.05 233614.00 208497.75 187014.63 166761.07 146686.23 126803.26 107571.17 91464.91 
 78718.98 68899.71 61412.31 55370.80 50525.78 46350.93 42792.13 39265.24 36102.26 32892.68 
 30024.02 27169.76 24561.90 21957.46 19667.23 17571.06 15715.19 14108.30 12746.63 11710.19 
 10914.12 10338.58 9891.94  9508.37  9178.76  8870.05  8580.79  8322.89  8093.67  7869.40  
 7659.68  7437.21  7212.23  6977.58  6744.57  6499.96  6250.86  5991.35  5725.87  5460.40  
 5195.65  4925.01  4659.47  4421.61  4204.56  3984.11  3761.32  3543.46  3339.59  3141.76  
 2950.02  2768.93  2587.84  2407.08  2252.52  2102.01  1955.27  1815.15  1685.95  1570.82  
 1457.22  1355.04  1262.45  1180.55  1104.79  1035.00  970.48   910.46   854.88   809.48   
 771.14   727.90   686.37   648.55   613.42   581.67   552.19   524.34   499.05   476.17   
 455.35   436.22   417.79   400.82   384.34   369.54   355.69   342.45   330.47   319.24   
 307.94   296.94   286.50   275.90   265.50   255.28   244.36   233.45   222.54   212.20   
 200.46   189.33   178.28   167.42   156.15   144.86   133.02   122.11   110.40   97.22    
 83.28    66.78    43.09    27.31    19.63    17.98    16.68    9.01     7.01     7.68     
 8.49     9.48     10.62    11.86    13.25    14.93    16.75    18.78    21.34    24.32    
 27.32    30.51    35.33    50.70    41.22    39.54    42.52    45.58    48.72    51.93    
 55.23    58.57    62.05    65.85    69.74    74.02    78.59    83.52    89.52    95.41    
 102.79   111.42   121.25   133.15   145.11   158.04   172.33   186.98   202.05   217.61   
 214.94   
421318.31 416967.07 410224.51 401094.91 389262.45 373779.84 353777.93 328767.81 298547.87 265520.57 
 232980.59 205295.62 181399.68 160139.02 141188.40 124347.90 111999.52 99684.15 87368.80 78221.52 
 70411.65 64087.05 58520.32 53413.29 48684.60 44195.56 39779.40 35474.14 31358.69 27201.83 
 23450.07 20194.42 17549.92 15604.32 14322.93 13480.75 12811.68 12214.96 11728.53 11242.93 
 10757.32 10344.45 9954.62  9589.36  9278.24  8992.77  8720.69  8481.90  8252.97  8004.12  
 7751.81  7505.97  7272.16  7056.44  6833.29  6608.08  6377.66  6150.79  5931.54  5698.37  
 5455.48  5217.98  4975.87  4740.90  4517.18  4280.39  4045.87  3813.77  3580.10  3359.20  
 3134.80  2927.57  2726.22  2536.34  2355.74  2192.80  2031.62  1868.06  1726.84  1598.21  
 1482.07  1376.42  1275.26  1190.75  1109.90  1029.07  962.18   900.62   843.58   804.47   
 767.45   726.23   687.86   654.08   624.29   597.23   573.56   552.84   534.03   516.93   
 501.17   487.10   473.56   461.23   449.73   438.15   426.77   416.09   405.94   395.91   
 385.98   376.43   367.15   358.34   349.10   340.55   332.00   324.38   316.49   308.60   
 301.26   293.54   285.86   278.92   270.99   262.75   254.29   245.27   236.70   227.60   
 218.36   207.14   196.08   184.55   173.61   162.25   151.10   139.56   127.42   114.44   
 101.44   86.58    55.52    21.48    15.02    14.33    13.98    14.30    16.35    18.71    
 21.25    23.88    26.76    29.85    33.05    36.31    39.98    44.01    47.69    52.50    
 71.96    58.35    61.39    65.87    70.49    75.42    80.36    85.60    91.07    96.87    
 103.13   110.07   118.24   127.37   137.93   150.47   164.17   179.13   194.65   211.18   
 214.94   
421318.31 416663.18 408426.13 396563.21 380664.90 359394.44 332753.86 300913.10 264927.72 228942.32 
 193049.50 165788.94 143878.28 126408.00 113249.10 102788.66 94230.01 86686.95 79971.17 74089.54 
 68376.32 62608.19 56487.08 50097.60 43622.49 37229.01 31455.32 27888.86 24322.39 20780.04 
 19134.91 17795.40 16699.83 15776.23 14973.32 14197.58 13497.88 12861.83 12285.53 11742.65 
 11231.00 10765.20 10340.73 9946.29  9599.66  9249.44  8936.08  8638.84  8357.72  8091.80  
 7831.26  7587.61  7358.06  7141.49  6930.36  6724.54  6529.23  6310.25  6078.84  5840.31  
 5606.54  5370.25  5123.83  4862.78  4610.00  4358.45  4100.24  3854.13  3619.38  3402.94  
 3185.04  2978.46  2785.38  2589.11  2392.97  2207.69  2045.12  1895.55  1754.00  1610.99  
 1483.74  1361.40  1251.73  1155.28  1073.74  997.78   930.52   865.74   813.18   775.95   
 742.70   707.79   670.91   637.68   608.71   584.98   564.93   547.80   531.67   516.64   
 503.98   492.41   482.35   472.64   463.45   454.77   446.49   438.64   431.13   423.14   
 416.27   408.68   401.56   393.80   386.50   378.43   370.19   362.04   354.48   346.41   
 338.63   330.95   323.75   316.32   308.64   301.09   293.54   285.86   278.19   270.72   
 263.04   255.43   248.00   239.36   230.73   222.28   213.59   203.82   193.70   183.48   
 172.17   161.00   149.43   134.85   118.18   107.16   99.81    89.35    41.59    25.76    
 25.57    24.71    23.34    25.55    29.01    32.60    36.39    40.34    44.67    49.39    
 54.47    60.08    65.27    79.39    84.73    78.69    84.64    90.86    97.00    103.02   
 109.02   115.07   121.40   128.12   136.01   145.53   157.69   171.48   187.00   204.14   
 214.94   
421318.31 415221.61 404611.62 389099.32 368206.54 339909.10 303702.43 262600.16 223229.18 188418.81 
 160645.26 139061.21 123342.60 113890.31 104488.53 95086.75 88884.55 83612.32 78574.01 73012.92 
 66215.09 58608.24 50737.52 42635.42 35515.43 30253.45 26915.87 24733.95 22945.15 21408.78 
 20072.17 18844.03 17715.59 16734.18 15829.11 15015.56 14258.11 13505.05 12797.45 12100.10 
 11587.61 11076.92 10566.24 10271.85 9920.17  9553.94  9224.45  8882.04  8587.62  8287.16  
 8011.86  7733.60  7449.71  7194.57  6951.71  6732.58  6537.29  6350.21  6158.40  5941.29  
 5698.74  5454.65  5184.69  4903.67  4626.95  4373.89  4131.45  3895.51  3662.83  3440.60  
 3226.46  3021.21  2789.39  2577.94  2387.50  2213.66  2051.59  1892.02  1733.68  1596.57  
 1462.85  1345.99  1235.67  1155.20  1074.95  994.70   923.21   855.25   805.30   769.09   
 736.27   698.78   657.84   623.48   592.49   567.69   547.85   531.73   517.01   503.82   
 491.47   481.62   474.03   466.68   460.02   453.89   447.04   440.99   435.59   429.81   
 423.77   418.28   412.37   406.24   400.20   393.94   387.72   381.34   373.83   366.44   
 358.83   351.52   344.26   337.56   330.65   324.12   317.51   310.77   303.36   296.23   
 289.01   281.40   273.79   265.84   258.09   246.52   233.31   224.79   217.22   209.39   
 200.42   191.12   182.68   174.71   166.50   157.93   145.57   134.86   126.90   118.97   
 93.17    27.96    26.33    27.18    29.00    32.07    36.62    41.57    46.61    52.32    
 58.58    65.42    72.31    79.16    87.01    116.44   93.97    100.13   106.53   112.48   
 118.07   123.41   128.61   133.78   139.56   146.94   156.93   169.40   183.46   199.76   
 214.94   
421318.31 415595.77 404839.80 388647.45 366274.81 334932.72 295569.14 254589.99 213686.28 180191.50 
 154490.85 135570.46 121639.10 110905.23 102578.76 95855.05 90353.47 85237.01 80038.73 73972.93 
 66535.24 57806.41 49006.31 40920.26 34633.42 30531.93 27913.29 26041.98 24388.73 22737.38 
 21224.43 19859.45 18731.14 17737.42 16800.72 15814.57 14874.03 14007.61 13192.05 12454.57 
 11798.78 11258.93 10907.73 10522.14 10064.04 9704.91  9365.04  9030.98  8715.59  8425.70  
 8162.05  7857.47  7568.19  7320.83  7086.99  6872.28  6687.84  6492.30  6305.07  6110.57  
 5908.89  5674.87  5409.42  5120.80  4861.90  4592.46  4339.06  4088.80  3833.53  3594.63  
 3354.48  3110.19  2853.79  2652.63  2451.70  2269.26  2087.98  1916.25  1756.78  1619.59  
 1476.86  1353.71  1239.04  1149.42  1065.71  987.43   916.58   847.84   794.31   756.88   
 723.04   686.63   643.69   605.98   573.42   547.55   526.71   509.77   495.60   483.21   
 472.70   463.75   456.32   450.15   444.63   439.41   434.37   429.84   425.40   420.71   
 415.97   411.23   406.48   401.34   396.35   391.86   386.94   381.93   376.80   371.52   
 365.49   359.71   354.40   348.91   342.94   336.59   330.11   323.79   317.26   310.43   
 303.42   296.17   288.59   280.67   272.49   264.63   254.17   242.15   230.19   222.74   
 215.45   207.67   199.99   192.05   183.98   175.42   166.65   158.49   149.87   141.99   
 132.22   98.03    28.07    29.36    30.81    33.24    38.09    44.20    50.30    56.89    
 64.57    72.58    80.51    89.04    96.94    119.72   115.46   111.84   117.18   122.50   
 127.38   132.15   136.46   140.42   144.48   149.36   156.64   166.51   179.34   194.86   
 214.94   
421318.31 414843.59 403363.23 386881.43 364247.00 334301.64 297566.94 258309.35 221841.88 190276.48 
 165456.30 146089.22 131171.90 119505.45 110682.85 101882.44 95510.56 89812.13 84326.08 78133.22 
 70769.21 62269.37 53359.24 44548.70 37356.62 32366.82 29302.34 27214.40 25361.45 23661.21 
 22124.77 20669.08 19396.35 18220.37 17140.33 16199.87 15288.30 14428.52 13618.95 12843.17 
 12158.77 11677.42 11198.01 10718.60 10297.47 9900.57  9556.91  9186.77  8881.94  8588.89  
 8317.98  8013.19  7711.68  7451.95  7201.05  6959.46  6741.26  6544.15  6338.38  6122.88  
 5878.35  5617.82  5351.25  5054.53  4765.53  4507.13  4261.06  4017.51  3772.77  3539.28  
 3323.97  3109.60  2877.38  2651.21  2459.21  2278.39  2114.52  1948.01  1784.28  1640.26  
 1503.24  1379.95  1266.01  1180.63  1095.46  1010.29  939.09   869.62   813.44   774.55   
 739.83   705.11   664.76   628.43   597.50   571.19   550.28   532.80   518.07   504.58   
 492.44   482.21   474.21   467.01   460.28   453.83   447.73   441.97   436.30   430.80   
 425.04   419.24   413.57   407.85   401.62   395.77   390.23   384.44   377.39   369.98   
 362.56   355.19   347.55   340.31   333.20   326.26   319.19   311.82   304.55   297.18   
 289.64   281.35   272.76   264.47   256.44   244.61   232.74   225.03   217.22   209.46   
 200.98   192.43   184.01   175.20   166.00   156.23   142.09   131.50   122.65   113.82   
 81.48    28.57    27.69    28.87    31.66    37.02    43.53    50.40    57.57    65.20    
 73.41    82.49    91.63    100.39   115.02   133.17   118.51   124.13   129.44   133.58   
 137.17   140.88   144.38   147.36   150.37   154.43   160.65   169.17   180.20   194.09   
 214.94   
421318.31 415780.07 406035.64 392355.83 374177.81 350836.99 323071.20 292893.41 262906.27 232919.16 
 202997.67 179195.31 158998.90 142099.67 128168.28 116808.81 107350.45 99001.30 91723.86 85351.79 
 78431.71 71176.86 63379.00 55203.81 46949.44 39402.72 33130.64 28531.91 25817.13 23115.44 
 21444.61 20030.99 18746.35 17612.96 16609.17 15703.10 14845.94 14087.83 13391.04 12755.50 
 12175.15 11646.39 11160.79 10713.70 10298.52 9898.31  9508.97  9158.26  8849.86  8555.06  
 8257.74  7983.43  7721.40  7479.44  7253.82  7040.04  6843.76  6630.90  6407.71  6159.71  
 5917.56  5661.26  5396.41  5120.86  4855.31  4596.45  4314.78  4043.50  3803.24  3571.42  
 3340.98  3125.14  2922.56  2721.38  2520.20  2319.27  2143.15  1980.25  1826.64  1684.37  
 1547.91  1423.57  1301.42  1192.71  1105.52  1027.40  955.75   889.34   827.11   782.33   
 748.55   715.59   678.15   642.44   611.07   584.59   562.33   543.17   526.06   510.96   
 498.08   486.59   476.24   466.59   457.46   449.03   441.16   433.29   425.65   418.41   
 411.20   403.90   396.60   389.52   382.70   375.31   367.52   359.44   351.70   343.57   
 335.51   327.86   319.95   312.30   304.69   296.95   289.30   281.53   274.00   266.18   
 258.35   250.41   241.45   232.50   224.12   215.30   206.22   195.48   185.05   175.09   
 165.53   155.05   144.58   130.49   118.99   108.05   96.15    73.21    26.94    23.24    
 24.23    25.12    27.63    32.66    38.23    44.27    50.71    57.57    65.06    73.15    
 81.98    91.04    101.42   128.13   112.22   118.17   123.82   129.14   133.67   137.85   
 141.82   145.17   147.90   150.93   154.40   158.81   164.61   172.39   182.25   194.52   
 214.94   
421318.31 416772.80 409172.35 398959.24 386774.27 372025.24 354197.26 333477.14 309707.93 282649.39 
 253890.46 225156.52 198890.37 176307.13 157297.40 140983.97 127516.13 116917.62 106347.36 95777.11 
 86943.03 78864.15 71491.58 64323.91 57567.60 51327.86 45271.28 39585.83 34141.78 28958.26 
 24599.53 21233.99 18775.77 17041.17 15789.99 14912.74 14153.91 13487.53 12891.15 12325.43 
 11842.21 11359.80 10877.39 10454.47 10071.18 9731.37  9412.08  9122.80  8860.39  8589.71  
 8316.48  8037.66  7771.67  7530.37  7307.83  7080.63  6838.07  6593.36  6342.58  6081.67  
 5823.51  5563.25  5313.94  5067.16  4821.21  4574.05  4330.91  4093.46  3849.19  3612.13  
 3378.76  3142.59  2930.38  2722.20  2528.96  2344.72  2180.30  2010.02  1845.74  1706.49  
 1579.15  1457.56  1345.29  1243.45  1162.62  1082.00  1001.38  934.20   870.92   819.52   
 781.98   743.48   702.83   665.39   632.27   603.86   578.84   557.01   536.86   518.29   
 501.73   486.92   472.60   459.64   447.25   435.42   424.12   413.08   402.27   392.15   
 381.96   372.37   362.48   352.89   343.22   334.28   325.53   317.02   308.87   300.60   
 292.11   284.10   275.48   266.95   258.06   249.31   240.73   232.54   224.08   215.50   
 206.53   196.47   185.19   173.73   162.56   151.79   140.77   130.22   117.35   104.47   
 90.99    76.07    39.99    21.74    17.20    15.68    15.68    17.64    20.57    23.88    
 27.70    31.90    36.60    41.93    47.63    53.90    60.90    68.34    76.03    92.63    
 92.20    94.77    100.95   107.16   112.64   118.37   123.49   128.48   133.29   137.22   
 140.45   143.79   147.42   151.68   156.51   162.11   168.58   176.40   185.86   197.20   
 214.94   
421318.31 419209.24 415100.25 409592.16 403155.17 395310.53 385798.81 372903.53 355700.14 334929.83 
 311765.10 287474.67 261904.47 236334.27 210798.17 188187.54 168227.50 150543.90 133735.10 118146.69 
 103565.47 89931.51 78073.05 68969.60 61875.77 56119.48 51522.11 47401.66 43726.67 40199.45 
 36767.45 33220.85 29860.69 26865.21 23869.73 20879.74 18372.11 16071.56 14193.99 12717.31 
 11641.59 10938.20 10427.90 10019.77 9685.97  9382.13  9096.51  8822.37  8568.96  8334.84  
 8102.11  7883.97  7676.03  7450.53  7213.51  6971.91  6715.98  6473.37  6200.18  5922.95  
 5645.34  5368.04  5084.13  4818.15  4572.55  4332.03  4102.32  3867.51  3645.22  3427.80  
 3214.53  3011.89  2825.82  2647.76  2469.84  2302.93  2142.62  1990.28  1850.12  1718.74  
 1591.45  1472.92  1364.16  1269.50  1185.10  1105.70  1032.57  965.21   905.07   848.22   
 800.05   760.36   717.13   674.41   635.34   600.50   568.88   538.41   510.67   484.52   
 460.78   439.00   418.84   399.78   382.25   366.20   351.15   336.19   321.98   309.21   
 297.35   285.71   274.20   262.92   252.06   240.59   229.13   218.45   207.47   196.68   
 185.51   174.20   163.31   153.22   143.50   133.72   123.41   113.04   101.83   89.80    
 77.15    62.25    45.31    27.66    20.27    18.08    12.38    8.55     9.11     9.95     
 11.00    12.17    13.47    15.02    16.85    19.02    21.53    24.53    28.26    32.47    
 37.03    42.81    56.68    50.77    54.60    59.37    64.77    70.41    76.26    82.00    
 87.65    93.13    98.60    104.10   109.20   114.47   119.05   123.57   127.96   132.22   
 136.67   141.57   146.90   152.68   159.04   165.95   173.67   182.08   191.37   201.52   
 214.94   
421318.31 421087.16 419692.36 417890.22 415288.68 410940.57 402555.73 390157.67 377681.70 362303.20 
 344751.00 324156.91 302184.13 280160.27 257101.17 233954.27 210750.59 188118.92 165810.81 143028.87 
 120838.72 102857.21 84913.23 72599.16 64018.45 57209.89 51771.68 47434.05 43553.16 39903.04 
 36548.99 33301.00 30177.11 27129.85 24234.28 21447.36 19047.07 16872.63 15023.26 13445.15 
 12211.13 11282.11 10355.97 9692.41  9144.42  8706.62  8347.95  8023.79  7737.80  7467.84  
 7199.54  6935.76  6688.52  6458.34  6182.83  5896.82  5624.02  5350.13  5071.79  4783.74  
 4513.77  4257.53  4022.03  3809.28  3610.43  3421.37  3237.64  3053.55  2874.70  2700.72  
 2537.68  2382.38  2234.80  2085.68  1949.82  1818.51  1694.90  1577.00  1467.61  1362.72  
 1262.71  1175.40  1088.19  1000.98  926.52   854.39   784.67   720.78   663.97   612.30   
 562.67   523.12   485.78   449.11   415.27   382.58   351.63   322.82   296.50   270.94   
 247.69   226.58   207.32   188.93   171.30   154.62   139.25   125.89   112.55   99.21    
 89.20    80.39    72.68    64.85    56.23    47.18    38.88    32.22    26.32    14.12    
 6.18     5.41     5.40     5.48     5.65     5.85     6.14     6.43     6.75     7.34     
 8.04     8.85     9.72     10.41    11.48    12.80    13.23    13.46    14.20    15.17    
 16.29    17.61    19.08    20.99    23.25    26.02    27.96    31.32    34.72    38.08    
 41.43    44.26    48.51    51.80    56.28    60.87    65.62    70.47    75.35    80.28    
 85.15    90.09    94.95    99.80    104.70   109.66   115.27   120.83   126.67   132.26   
 138.19   144.61   151.60   159.17   167.27   176.04   185.34   195.34   205.46   215.92   
 214.94   
421318.31 423112.25 423955.37 424238.85 423103.25 416904.83 405860.22 395655.86 382484.59 367905.29 
 351819.82 334030.80 315791.06 295035.50 271780.20 246771.37 219619.76 191511.21 162999.03 136754.55 
 114692.27 98664.80 82707.56 71438.91 62328.06 55118.57 48839.17 43846.09 39490.43 35538.07 
 32095.73 28961.13 26002.52 22940.15 20186.16 17659.10 15475.64 13456.65 11839.95 10621.07 
 9407.26  8613.38  7977.53  7447.96  6966.09  6555.08  6259.70  6017.27  5753.14  5456.56  
 5163.23  4863.58  4534.89  4207.02  3895.85  3631.74  3372.54  3142.00  2921.72  2721.03  
 2514.58  2323.70  2146.34  1981.46  1823.88  1682.26  1543.62  1411.36  1283.55  1170.47  
 1057.56  944.64   841.40   744.98   654.72   574.10   498.43   428.16   363.90   307.19   
 255.57   208.68   167.26   132.43   102.59   72.81    42.31    17.69    5.98     5.31     
 5.16     5.02     5.00     4.96     4.91     4.86     4.81     4.77     4.72     4.83     
 4.91     4.95     4.99     5.14     5.41     5.68     5.97     6.17     6.44     6.79     
 7.09     7.34     7.73     8.10     8.43     8.89     9.39     9.89     10.38    10.77    
 11.19    11.62    12.11    12.63    13.22    13.90    14.69    15.60    16.58    17.68    
 18.95    20.36    22.05    23.97    25.98    28.22    30.82    33.86    37.33    41.31    
 45.76    50.89    56.86    63.70    71.10    79.35    88.24    97.57    107.47   117.99   
 128.78   139.42   150.09   160.89   171.41   181.66   191.81   201.58   210.95   219.96   
 228.40   236.96   245.53   252.60   259.09   264.94   270.18   275.55   278.99   281.50   
 283.03   283.43   282.96   281.38   278.63   274.70   269.61   263.65   256.45   247.55   
 214.94   
421318.31 423413.40 424359.56 424510.96 423795.19 418656.61 407731.44 396406.18 384369.83 367536.95 
 351432.31 332736.62 310332.90 282636.21 253097.49 223558.77 194061.90 168960.32 142513.87 117986.77 
 96914.78 79528.84 66624.66 56289.81 47263.64 41221.12 36670.50 32685.58 29476.78 26438.46 
 23400.14 20366.14 17898.83 15382.31 13148.23 11097.44 9436.47  7884.61  6667.16  5656.24  
 4863.18  4261.65  3752.53  3376.33  3044.90  2721.16  2397.62  2097.41  1821.07  1530.32  
 1249.79  998.32   805.30   644.64   533.62   449.72   382.00   322.46   279.32   236.19   
 193.18   164.27   138.84   116.99   98.21    82.95    68.62    57.22    48.62    41.86    
 35.98    30.90    27.06    23.62    20.08    13.47    12.10    11.01    9.93     8.99     
 7.95     6.97     6.06     5.00     3.91     3.11     2.99     3.06     3.14     3.23     
 3.33     3.45     3.56     3.71     3.85     4.02     4.19     4.38     4.59     4.83     
 5.04     5.26     5.50     5.76     6.02     6.31     6.60     6.93     7.27     7.61     
 7.96     8.34     8.73     9.12     9.51     9.92     10.39    10.87    11.36    11.86    
 12.40    12.99    13.63    14.36    15.13    16.07    17.11    18.24    19.47    20.83    
 22.34    23.94    25.64    27.44    29.52    32.03    34.76    37.74    41.09    44.93    
 49.33    53.96    59.56    65.99    73.16    81.19    89.80    99.08    108.84   119.79   
 130.75   141.83   152.75   164.10   175.20   186.15   196.98   207.24   217.72   227.64   
 237.16   246.08   254.61   262.66   270.14   276.83   282.42   287.73   291.84   294.90   
 296.62   296.48   295.48   293.30   289.69   284.95   278.53   270.83   261.64   251.05   
 214.94   
421318.31 422926.69 423140.16 422002.82 419357.87 413803.65 400911.81 370552.57 342449.09 317436.40 
 288927.68 261791.07 231961.11 198290.79 171493.64 148385.70 121340.42 102615.36 83996.74 68476.46 
 55773.93 41837.97 34265.57 29548.34 26184.98 22738.00 20252.00 17974.73 16065.50 14160.95 
 12299.52 9932.00  7558.38  5615.03  4400.93  3180.70  2526.58  1859.46  1413.13  1117.58  
 823.94   530.29   387.72   289.09   218.82   174.88   142.14   122.10   102.18   82.27    
 70.21    61.29    53.90    48.29    43.84    39.86    36.38    33.29    30.77    28.94    
 27.08    25.38    23.64    21.34    15.73    12.26    11.34    10.62    10.00    9.40     
 8.89     8.38     7.95     7.54     7.11     6.72     6.33     5.92     5.53     5.14     
 4.74     4.33     3.94     3.63     3.47     3.45     3.51     3.61     3.73     3.84     
 3.97     4.11     4.26     4.43     4.61     4.82     5.03     5.25     5.47     5.71     
 5.97     6.22     6.49     6.78     7.07     7.37     7.67     8.00     8.33     8.67     
 9.01     9.36     9.71     10.08    10.47    10.87    11.30    11.72    12.18    12.66    
 13.15    13.68    14.30    14.95    15.66    16.46    17.33    18.28    19.28    20.46    
 21.70    23.13    24.66    26.34    28.24    30.36    32.91    35.79    39.05    42.77    
 46.96    51.70    57.18    63.63    70.84    78.71    87.24    96.64    106.88   117.65   
 128.90   140.70   152.94   165.42   178.25   190.96   203.44   215.38   227.30   239.27   
 251.25   261.53   270.87   279.41   287.09   293.77   299.63   304.06   307.41   309.58   
 310.51   309.40   306.95   303.55   298.16   291.89   283.39   273.44   261.94   248.41   
 214.94   
421318.31 422771.44 422032.56 418667.97 412534.32 388302.82 354869.58 327208.66 297744.98 264024.21 
 230303.42 196553.13 159305.93 131592.10 105255.91 79733.60 63917.56 55061.87 47788.29 41679.46 
 35981.84 31543.10 26695.72 21848.34 17008.02 12995.13 10567.14 7229.84  5734.22  4279.69  
 2825.16  1376.83  745.39   531.10   349.67   265.48   181.60   133.80   108.21   91.98    
 76.80    64.44    54.09    48.13    43.03    38.58    33.81    30.41    27.70    25.57    
 23.91    22.26    21.06    20.11    19.20    18.16    15.82    11.12    9.23     8.65     
 8.35     8.10     7.80     7.50     7.22     6.94     6.71     6.52     6.32     6.14     
 5.98     5.78     5.59     5.38     5.14     4.89     4.68     4.44     4.23     4.02     
 3.81     3.61     3.46     3.37     3.37     3.43     3.50     3.60     3.72     3.83     
 3.96     4.10     4.24     4.41     4.58     4.78     4.98     5.20     5.42     5.65     
 5.89     6.13     6.39     6.66     6.95     7.23     7.53     7.83     8.14     8.45     
 8.76     9.09     9.42     9.74     10.08    10.46    10.86    11.29    11.70    12.14    
 12.64    13.15    13.69    14.28    14.90    15.60    16.38    17.29    18.28    19.37    
 20.55    21.88    23.41    25.04    26.82    28.85    31.11    33.61    36.37    39.58    
 43.27    47.41    52.14    57.55    63.76    70.84    78.78    87.62    97.35    108.23   
 120.74   133.26   146.47   161.00   175.80   191.20   206.68   221.61   236.78   250.96   
 264.44   276.71   287.93   298.02   306.47   313.38   318.74   322.64   325.23   326.17   
 325.55   323.41   319.66   314.23   307.27   298.45   288.19   276.28   262.35   247.01   
 214.94   
421318.31 422037.90 419487.02 412885.66 388168.14 348248.18 317064.23 281120.22 238984.01 204007.19 
 164122.32 130118.72 107363.79 84733.77 62103.75 53824.45 46956.93 41363.35 36516.14 31689.83 
 23418.50 17777.82 12046.66 8741.32  5463.26  3025.69  1619.74  1013.59  415.52   283.54   
 207.90   157.49   130.00   102.78   75.56    70.63    55.29    50.05    41.11    38.94    
 31.32    26.61    24.73    22.79    21.44    19.65    18.60    17.28    16.29    15.65    
 14.69    12.30    9.37     8.21     7.65     7.16     6.72     6.62     6.68     6.75     
 6.68     6.49     6.32     6.11     5.93     5.77     5.61     5.45     5.27     5.09     
 4.93     4.77     4.63     4.49     4.35     4.20     4.08     3.95     3.84     3.73     
 3.63     3.55     3.51     3.50     3.51     3.56     3.64     3.73     3.82     3.93     
 4.05     4.18     4.33     4.48     4.65     4.83     5.02     5.23     5.43     5.63     
 5.86     6.11     6.36     6.61     6.87     7.15     7.44     7.73     8.03     8.34     
 8.67     9.02     9.38     9.75     10.14    10.53    10.92    11.33    11.76    12.19    
 12.64    13.11    13.59    14.09    14.66    15.24    15.89    16.62    17.44    18.34    
 19.35    20.51    21.85    23.40    25.21    27.24    29.46    31.97    34.72    37.83    
 41.24    45.11    49.36    54.16    59.67    65.98    73.20    81.39    90.60    101.39   
 113.31   126.30   140.05   155.07   171.73   188.65   205.84   222.83   241.23   259.64   
 276.37   291.35   304.48   316.69   326.52   333.72   338.86   341.88   342.90   342.18   
 339.60   335.36   329.57   322.01   312.96   302.14   289.40   275.83   260.36   243.24   
 214.94   
421318.31 422122.19 418969.64 410781.86 378930.41 335015.32 297793.88 254438.66 211033.96 161133.37 
 123431.66 91449.63 64906.55 55760.65 48682.68 43178.54 38774.72 35048.40 27535.79 20046.39 
 15674.46 11139.82 6172.18  3627.30  1100.16  616.71   137.95   170.18   121.45   69.03    
 63.51    41.15    28.08    22.28    19.15    17.07    15.70    14.50    13.64    12.88    
 12.02    11.39    10.85    10.25    9.80     9.51     9.22     9.00     8.36     6.44     
 5.58     5.32     5.57     5.91     5.91     5.80     5.68     5.51     5.30     5.08     
 4.90     4.79     4.61     4.47     4.32     4.21     4.12     4.03     3.92     3.83     
 3.78     3.70     3.64     3.60     3.55     3.48     3.43     3.38     3.34     3.30     
 3.27     3.27     3.28     3.30     3.34     3.40     3.46     3.52     3.60     3.68     
 3.79     3.90     4.03     4.18     4.33     4.49     4.67     4.86     5.06     5.28     
 5.51     5.72     5.95     6.20     6.45     6.71     6.99     7.28     7.56     7.85     
 8.15     8.47     8.81     9.16     9.51     9.88     10.28    10.70    11.11    11.54    
 12.02    12.52    13.02    13.54    14.05    14.62    15.22    15.85    16.53    17.26    
 18.05    18.98    20.02    21.25    22.70    24.40    26.48    28.83    31.53    34.53    
 37.98    41.75    45.86    50.39    55.46    61.22    67.63    74.87    83.30    93.28    
 104.61   118.35   132.10   148.20   165.21   183.18   202.22   221.10   240.84   259.88   
 278.66   296.52   313.12   327.92   339.90   349.29   355.48   358.90   359.57   357.38   
 353.01   346.82   339.20   329.88   318.90   306.18   291.26   275.33   257.93   239.47   
 214.94   
421318.31 421419.99 417196.82 407676.09 369862.35 325713.90 286703.80 235502.30 190061.95 142919.08 
 113375.98 84038.50 54701.03 47032.25 41556.87 37392.75 34099.62 26676.32 22354.69 17383.11 
 11638.74 7623.77  3629.20  1628.62  1086.63  560.41   34.19    21.63    17.94    16.68    
 15.85    14.40    13.42    12.49    11.61    10.44    9.53     8.73     8.26     8.16     
 8.01     7.84     7.66     7.46     6.94     6.59     6.36     5.96     5.53     5.35     
 5.03     4.79     4.61     4.51     4.37     4.27     4.11     4.04     4.00     3.98     
 3.96     3.94     3.91     3.90     3.90     3.90     3.88     3.87     3.86     3.84     
 3.82     3.79     3.76     3.73     3.71     3.67     3.65     3.63     3.61     3.58     
 3.58     3.58     3.57     3.57     3.58     3.62     3.64     3.69     3.77     3.85     
 3.94     4.06     4.18     4.33     4.48     4.64     4.81     5.00     5.19     5.40     
 5.60     5.81     6.04     6.28     6.55     6.82     7.09     7.37     7.66     7.96     
 8.28     8.61     8.95     9.31     9.67     10.07    10.47    10.90    11.35    11.81    
 12.30    12.79    13.31    13.85    14.42    15.03    15.67    16.35    17.09    17.87    
 18.74    19.69    20.73    21.93    23.34    24.97    27.01    29.41    32.17    35.33    
 38.82    42.66    46.94    51.79    57.11    62.93    69.28    76.41    84.54    94.49    
 106.30   119.63   134.42   150.30   167.13   185.15   205.43   225.81   245.93   266.05   
 284.69   303.23   320.05   334.48   346.78   355.53   361.00   363.13   361.87   357.59   
 350.92   342.84   332.98   322.14   310.23   297.23   283.01   267.75   251.57   233.66   
 214.94   
