IESNA:LM-63-2002
[TEST] 1
[TESTLAB] AOK
[TESTDATE] 2022-05-23
[ISSUEDATE] 2022-05-23 16:02:29
[NEARFIELD] 
[LAMPPOSITION] 0,0
[OTHER] EVERFINE GO-2000A_V1 SYSTEM
[MANUFAC] AOK
[LUMCAT] A
[LUMINAIRE] AOK-400WiSF-NV-S35-00-5070-15D-P
[LAMPCAT] B
[LAMP] 5050
[BALLAST] E
[BALLASTCAT] F
[OTHER] 
[OTHER] Gamma(deg)    Fz(lm)      Ft(lm)     %Lum    %Lamp
[OTHER]   0- 10     23265.04    23265.04    46.56    46.56
[OTHER]  10- 20     12062.08    35327.11    70.70    70.70
[OTHER]  20- 30      4549.31    39876.42    79.80    79.80
[OTHER]  30- 40      2898.06    42774.48    85.60    85.60
[OTHER]  40- 50      2326.51    45100.98    90.26    90.26
[OTHER]  50- 60      1950.14    47051.12    94.16    94.16
[OTHER]  60- 70      1400.41    48451.53    96.96    96.96
[OTHER]  70- 80       703.08    49154.61    98.37    98.37
[OTHER]  80- 90       272.91    49427.52    98.91    98.91
[OTHER]  90-100       140.91    49568.42    99.20    99.20
[OTHER] 100-110       100.02    49668.44    99.40    99.40
[OTHER] 110-120        81.99    49750.44    99.56    99.56
[OTHER] 120-130        62.37    49812.81    99.69    99.69
[OTHER] 130-140        43.83    49856.64    99.77    99.77
[OTHER] 140-150        31.86    49888.50    99.84    99.84
[OTHER] 150-160        35.91    49924.41    99.91    99.91
[OTHER] 160-170        33.98    49958.39    99.98    99.98
[OTHER] 170-180        11.63    49970.02   100.00   100.00
[OTHER] 
TILT=NONE
1 49970 1 181 25 1 2 0.150 0.200 0.000
1.000 1 400.799
0.0    1.0    2.0    3.0    4.0    5.0    6.0    7.0    8.0    9.0    
 10.0   11.0   12.0   13.0   14.0   15.0   16.0   17.0   18.0   19.0   
 20.0   21.0   22.0   23.0   24.0   25.0   26.0   27.0   28.0   29.0   
 30.0   31.0   32.0   33.0   34.0   35.0   36.0   37.0   38.0   39.0   
 40.0   41.0   42.0   43.0   44.0   45.0   46.0   47.0   48.0   49.0   
 50.0   51.0   52.0   53.0   54.0   55.0   56.0   57.0   58.0   59.0   
 60.0   61.0   62.0   63.0   64.0   65.0   66.0   67.0   68.0   69.0   
 70.0   71.0   72.0   73.0   74.0   75.0   76.0   77.0   78.0   79.0   
 80.0   81.0   82.0   83.0   84.0   85.0   86.0   87.0   88.0   89.0   
 90.0   91.0   92.0   93.0   94.0   95.0   96.0   97.0   98.0   99.0   
 100.0  101.0  102.0  103.0  104.0  105.0  106.0  107.0  108.0  109.0  
 110.0  111.0  112.0  113.0  114.0  115.0  116.0  117.0  118.0  119.0  
 120.0  121.0  122.0  123.0  124.0  125.0  126.0  127.0  128.0  129.0  
 130.0  131.0  132.0  133.0  134.0  135.0  136.0  137.0  138.0  139.0  
 140.0  141.0  142.0  143.0  144.0  145.0  146.0  147.0  148.0  149.0  
 150.0  151.0  152.0  153.0  154.0  155.0  156.0  157.0  158.0  159.0  
 160.0  161.0  162.0  163.0  164.0  165.0  166.0  167.0  168.0  169.0  
 170.0  171.0  172.0  173.0  174.0  175.0  176.0  177.0  178.0  179.0  
 180.0  
0.0    15.0   30.0   45.0   60.0   75.0   90.0   105.0  120.0  135.0  
 150.0  165.0  180.0  195.0  210.0  225.0  240.0  255.0  270.0  285.0  
 300.0  315.0  330.0  345.0  360.0  
365584.06 365402.33 364215.03 361831.47 357063.77 307770.96 260180.54 216364.72 163718.00 116606.75 
 82691.87 48930.21 26208.35 6515.14  508.58   313.73   177.94   42.14    29.36    22.39    
 19.19    16.17    13.90    12.25    10.96    9.79     8.73     7.87     7.26     7.05     
 7.36     7.65     7.74     7.37     6.94     6.56     5.88     5.47     5.24     5.14     
 5.17     4.89     4.61     4.21     3.91     3.52     3.37     3.29     3.13     2.96     
 2.72     2.59     2.54     2.54     2.49     2.49     2.47     2.47     2.42     2.38     
 2.37     2.36     2.36     2.36     2.35     2.35     2.35     2.34     2.34     2.33     
 2.34     2.34     2.34     2.34     2.35     2.35     2.36     2.37     2.38     2.40     
 2.41     2.42     2.43     2.44     2.56     2.74     2.88     3.00     3.08     3.14     
 3.20     3.29     3.41     3.49     3.54     3.59     3.68     3.76     3.90     4.06     
 4.25     4.45     4.69     4.95     5.23     5.52     5.83     6.15     6.47     6.77     
 7.06     7.34     7.60     7.86     8.13     8.41     8.71     9.04     9.40     9.78     
 10.19    10.62    11.08    11.55    12.03    12.53    13.10    13.71    14.35    15.01    
 15.70    16.41    17.18    17.98    18.83    19.74    20.71    21.78    22.98    24.30    
 25.76    27.41    29.31    31.49    33.94    36.90    40.30    44.17    48.67    54.28    
 61.19    69.26    78.49    88.64    99.75    112.07   124.64   137.04   149.76   162.40   
 174.42   185.64   196.46   205.11   211.62   215.74   217.33   216.64   213.91   209.33   
 203.54   196.76   189.37   181.53   173.35   164.86   156.34   147.38   138.19   128.09   
 116.04   
365584.06 365451.24 363806.42 361466.82 356531.72 323678.92 274624.66 225570.35 176452.03 118994.96 
 86926.28 51267.22 38648.45 26029.67 13410.90 906.48   776.40   555.37   334.34   114.75   
 88.36    85.24    75.37    50.61    63.74    60.44    34.32    20.49    14.59    11.38    
 9.14     7.86     7.24     6.72     6.00     4.76     4.34     4.25     4.15     4.05     
 3.88     3.89     4.32     4.34     4.33     4.31     4.16     4.09     3.94     3.82     
 3.66     3.57     3.45     3.36     3.31     3.27     3.20     3.14     3.07     3.00     
 2.90     2.78     2.68     2.61     2.54     2.47     2.41     2.34     2.27     2.21     
 2.15     2.10     2.07     2.03     2.00     1.97     1.97     1.96     1.96     1.95     
 1.95     1.96     2.00     2.04     2.09     2.15     2.23     2.32     2.40     2.50     
 2.59     2.70     2.81     2.92     3.04     3.16     3.30     3.45     3.61     3.79     
 3.99     4.20     4.43     4.67     4.93     5.18     5.47     5.75     6.04     6.33     
 6.64     6.95     7.27     7.56     7.87     8.18     8.53     8.89     9.28     9.66     
 10.08    10.53    11.02    11.51    12.02    12.54    13.10    13.70    14.31    14.96    
 15.65    16.36    17.11    17.88    18.72    19.63    20.66    21.76    22.93    24.24    
 25.75    27.44    29.30    31.48    33.93    36.83    40.09    43.96    48.53    54.08    
 60.74    68.66    77.74    88.04    99.40    111.32   123.84   136.30   149.05   161.66   
 173.76   185.39   195.87   204.71   211.29   215.44   217.01   216.39   213.70   209.31   
 203.78   197.23   189.97   182.27   174.24   166.19   157.72   148.92   138.51   126.79   
 116.04   
365584.06 365080.30 362700.48 359627.55 353538.68 340879.62 285697.04 230885.15 178811.42 128786.84 
 94411.71 60218.93 36266.15 26685.39 15654.69 8465.30  1316.14  957.87   686.08   514.75   
 362.55   193.56   155.45   118.83   82.22    71.71    59.78    48.77    42.26    36.43    
 31.91    26.97    22.80    20.42    18.66    16.79    14.80    12.68    10.41    9.75     
 9.54     9.54     9.02     8.49     8.13     7.95     7.17     6.62     6.33     5.95     
 5.48     5.11     4.63     4.03     3.66     3.51     3.38     3.24     3.05     2.87     
 2.72     2.57     2.45     2.36     2.29     2.22     2.16     2.10     2.05     2.01     
 1.98     1.95     1.93     1.91     1.90     1.89     1.87     1.86     1.85     1.84     
 1.83     1.83     1.86     1.92     1.98     2.05     2.14     2.22     2.32     2.42     
 2.54     2.67     2.80     2.94     3.10     3.27     3.43     3.60     3.77     3.96     
 4.14     4.33     4.53     4.74     4.96     5.18     5.40     5.65     5.90     6.17     
 6.46     6.75     7.05     7.36     7.68     8.02     8.36     8.71     9.09     9.46     
 9.85     10.27    10.70    11.15    11.61    12.08    12.57    13.10    13.66    14.28    
 14.92    15.61    16.35    17.18    18.06    19.04    20.10    21.27    22.58    24.03    
 25.62    27.40    29.47    31.77    34.33    37.32    40.84    44.98    49.84    55.73    
 62.76    70.78    79.91    90.30    101.46   113.29   125.78   138.52   151.28   164.11   
 176.31   187.53   197.28   205.11   210.80   214.24   215.45   214.46   211.77   207.50   
 201.92   195.49   188.34   180.78   172.77   164.63   155.68   145.80   135.14   123.76   
 116.04   
365584.06 364966.21 362271.37 357961.64 350431.44 333370.95 306065.09 248437.97 190888.98 143801.12 
 102513.68 75110.61 49420.53 35885.14 26333.73 16841.48 13735.07 8859.85  6200.01  3540.17  
 899.10   698.69   453.93   359.02   264.11   169.62   121.91   91.93    70.82    58.23    
 49.59    42.66    37.13    32.80    29.49    26.70    24.15    22.00    20.12    18.44    
 16.95    15.42    13.69    11.41    9.68     8.94     8.60     8.18     7.78     7.39     
 6.97     6.54     6.10     5.67     5.26     4.92     4.67     4.45     4.24     4.04     
 3.86     3.68     3.51     3.36     3.23     3.11     3.01     2.89     2.78     2.67     
 2.54     2.42     2.31     2.21     2.11     2.03     1.95     1.89     1.84     1.79     
 1.73     1.73     1.74     1.77     1.83     1.90     1.98     2.07     2.17     2.28     
 2.40     2.52     2.65     2.80     2.95     3.09     3.26     3.42     3.59     3.77     
 3.96     4.15     4.35     4.56     4.78     5.00     5.24     5.48     5.72     5.97     
 6.24     6.51     6.80     7.08     7.36     7.67     7.98     8.32     8.64     8.97     
 9.32     9.67     10.05    10.43    10.82    11.22    11.65    12.15    12.64    13.16    
 13.72    14.33    15.00    15.73    16.53    17.42    18.43    19.57    20.79    22.15    
 23.76    25.53    27.51    29.84    32.45    35.56    39.21    43.49    48.54    54.66    
 61.71    69.94    79.01    89.22    100.43   112.24   124.88   137.47   150.17   162.73   
 174.36   184.97   193.97   201.40   206.72   209.99   211.28   210.62   208.13   204.11   
 199.78   194.19   187.24   179.04   170.72   162.81   154.26   144.77   134.59   124.32   
 116.04   
365584.06 364202.50 360781.06 354247.42 340111.93 316291.34 282503.17 243369.67 198514.59 156914.30 
 117728.29 89354.73 61104.34 47532.94 36132.86 28931.68 23002.07 16180.03 12859.42 10425.39 
 8001.67  5577.95  4536.73  2959.49  2257.05  1523.76  1005.22  488.93   387.21   281.35   
 201.25   146.49   118.22   90.26    76.10    64.35    54.85    47.35    40.88    35.72    
 31.27    27.46    24.46    21.90    19.82    18.00    16.36    15.00    13.83    12.64    
 11.47    10.24    8.71     7.29     6.72     6.47     6.20     5.97     5.76     5.54     
 5.34     5.15     4.99     4.83     4.69     4.55     4.44     4.33     4.24     4.15     
 4.07     3.97     3.87     3.74     3.60     3.44     3.26     3.08     2.88     2.66     
 2.46     2.20     2.00     1.95     1.96     2.02     2.10     2.18     2.28     2.38     
 2.49     2.62     2.74     2.89     3.03     3.18     3.34     3.51     3.69     3.87     
 4.06     4.26     4.47     4.69     4.91     5.14     5.38     5.61     5.86     6.12     
 6.38     6.64     6.92     7.19     7.48     7.77     8.06     8.36     8.67     8.99     
 9.31     9.62     9.96     10.30    10.64    10.99    11.37    11.75    12.15    12.59    
 13.06    13.56    14.08    14.70    15.41    16.18    17.07    18.09    19.23    20.55    
 22.05    23.75    25.79    28.14    30.92    34.24    38.25    42.91    48.39    55.06    
 62.80    71.35    80.75    90.85    102.37   114.35   126.50   138.35   150.16   161.90   
 172.61   181.91   190.07   196.86   201.86   205.10   206.65   206.38   205.51   201.79   
 196.92   191.09   184.65   177.33   169.14   161.46   153.74   144.86   135.53   126.24   
 116.04   
365584.06 363964.68 360129.76 352445.85 335772.84 307638.91 266818.05 225997.19 185185.54 145660.47 
 113851.15 89756.71 71342.24 58147.46 47868.64 39626.08 33027.06 28435.36 23843.66 19256.99 
 15352.29 12187.29 9976.41  8370.76  6872.61  5626.37  4646.13  3974.27  3502.53  3086.59  
 2709.92  2333.81  2032.84  1771.56  1533.84  1319.52  1123.37  960.07   808.26   670.06   
 547.67   438.12   341.06   284.64   228.23   171.96   134.21   102.42   80.69    64.19    
 51.32    42.28    35.88    30.73    27.01    23.78    21.20    19.23    17.38    15.98    
 14.81    13.88    13.04    12.32    11.51    10.57    9.79     8.99     8.78     8.69     
 8.61     8.54     8.40     8.30     8.18     8.08     7.94     7.78     7.59     7.22     
 6.62     5.77     4.68     2.82     1.63     1.65     1.71     1.78     1.85     1.93     
 2.01     2.10     2.20     2.32     2.43     2.56     2.70     2.84     2.99     3.15     
 3.31     3.48     3.66     3.84     4.04     4.24     4.45     4.67     4.90     5.13     
 5.37     5.62     5.89     6.16     6.42     6.70     6.98     7.29     7.58     7.87     
 8.17     8.48     8.80     9.13     9.44     9.75     10.09    10.44    10.79    11.16    
 11.55    11.95    12.39    12.90    13.44    14.04    14.75    15.57    16.51    17.65    
 19.00    20.62    22.47    24.77    27.53    30.94    35.00    39.93    45.70    52.56    
 60.25    69.00    78.41    88.68    99.65    110.90   122.49   134.00   145.45   156.21   
 166.13   175.17   183.07   189.94   195.35   199.52   202.19   204.48   204.10   202.29   
 199.16   194.90   189.50   183.23   175.35   167.78   160.17   151.51   142.43   132.87   
 116.04   
365584.06 364326.67 360747.64 353337.80 337346.99 309651.64 268638.92 227626.24 186619.23 146246.41 
 113804.72 90154.71 72807.26 59731.63 49481.66 40922.74 34014.23 28642.15 24769.00 20904.55 
 17893.79 15294.60 13086.20 11224.21 9622.15  8306.84  7323.75  6617.03  6137.73  5756.03  
 5422.48  5124.60  4857.94  4604.82  4353.23  4131.65  3924.66  3740.64  3581.27  3421.23  
 3272.01  3129.05  2977.93  2845.11  2711.25  2577.38  2443.51  2309.42  2176.45  2054.26  
 1942.46  1832.79  1730.03  1631.46  1535.92  1448.41  1357.43  1271.41  1184.37  1097.51  
 1015.57  936.14   863.06   787.88   715.54   646.17   580.54   516.62   454.90   398.83   
 346.57   297.09   258.70   220.32   182.04   151.75   126.51   105.65   89.39    74.99    
 62.76    54.25    45.27    37.53    29.63    1.83     1.68     1.00     0.87     0.82     
 0.78     0.75     0.75     0.77     0.78     0.79     0.81     0.82     0.85     0.86     
 0.88     0.91     0.93     0.96     0.99     1.02     1.05     1.09     1.14     1.18     
 1.22     1.27     1.32     1.37     1.42     1.47     1.51     1.56     1.62     1.67     
 1.72     1.79     1.84     1.90     1.96     2.03     2.09     2.16     2.23     2.31     
 2.39     2.48     2.58     2.69     2.81     2.95     3.11     3.31     3.51     3.76     
 4.07     4.43     4.86     5.42     6.05     6.80     7.66     8.63     9.70     10.94    
 12.25    13.64    15.17    16.85    18.66    20.59    22.65    24.84    27.08    29.35    
 31.63    33.92    36.23    38.57    40.92    43.36    45.85    48.35    51.95    54.54    
 57.25    60.27    63.78    68.00    72.12    78.04    85.40    93.21    101.68   111.12   
 116.04   
365584.06 363850.45 359655.13 350942.05 333432.40 304408.93 264945.29 220613.86 178127.61 140899.96 
 113337.36 93646.61 74022.96 61839.45 52184.32 44390.20 38177.18 33139.18 28990.32 25279.02 
 21977.31 19088.90 16436.57 14168.47 12163.71 10751.78 9344.53  8421.82  7739.10  7217.52  
 6815.20  6467.48  6170.56  5930.39  5711.89  5534.71  5383.45  5235.60  5101.72  4972.77  
 4854.64  4744.20  4629.44  4496.67  4368.14  4235.65  4100.32  3967.78  3838.45  3714.34  
 3608.56  3499.43  3397.05  3293.54  3191.21  3090.49  2993.39  2892.31  2794.40  2690.12  
 2589.79  2488.57  2387.46  2282.37  2178.83  2074.51  1974.57  1872.27  1763.97  1654.81  
 1547.65  1442.50  1336.05  1227.72  1126.19  1024.74  934.64   847.53   765.52   689.15   
 618.37   554.99   495.37   441.70   395.78   356.00   323.92   297.15   277.32   259.22   
 241.48   222.92   205.22   189.72   175.40   161.94   150.39   140.48   130.98   122.11   
 113.25   106.28   100.09   94.43    88.98    84.11    79.64    75.37    71.85    68.20    
 64.44    61.21    58.19    54.73    51.49    48.37    45.37    42.45    39.58    36.68    
 34.08    31.54    28.89    26.35    23.78    21.07    17.99    15.06    12.14    9.54     
 6.50     4.81     3.60     2.53     2.04     2.01     2.09     2.22     2.38     2.57     
 2.80     3.09     3.44     3.89     4.44     5.08     5.84     6.71     7.70     8.80     
 10.01    11.31    12.71    14.27    15.91    17.60    19.42    21.27    23.17    25.11    
 27.08    29.09    31.11    33.18    35.23    37.37    39.57    41.81    44.23    47.45    
 50.41    53.36    56.90    61.10    65.45    71.62    79.43    87.98    97.31    107.77   
 116.04   
365584.06 364005.06 359983.83 352205.00 335883.30 308807.42 267226.40 225645.38 184107.37 146843.09 
 118798.72 98259.50 82060.79 69302.15 59303.47 51723.40 45622.19 40314.23 35946.83 32358.61 
 28776.81 25613.57 22455.74 19791.98 17312.75 15251.54 13501.47 11986.97 10686.61 9604.70  
 8704.68  7957.96  7380.37  6953.77  6659.40  6424.46  6228.84  6055.80  5905.64  5769.93  
 5644.20  5519.55  5391.08  5271.75  5150.94  5039.59  4917.81  4790.86  4664.64  4533.76  
 4411.67  4292.39  4175.10  4057.69  3936.05  3821.96  3705.06  3587.30  3463.10  3333.31  
 3202.67  3068.01  2929.86  2799.30  2671.62  2543.94  2416.26  2288.42  2160.52  2027.17  
 1893.83  1753.93  1625.38  1505.67  1386.84  1266.70  1146.28  1038.08  936.66   841.79   
 753.67   670.58   599.67   536.25   481.72   435.03   399.44   370.55   346.43   327.30   
 308.63   288.99   270.78   254.57   239.99   225.45   214.18   203.62   193.69   184.99   
 177.33   170.51   164.12   158.24   152.95   148.03   143.84   139.57   135.69   132.16   
 129.03   125.74   122.60   119.79   117.13   114.28   111.68   109.08   106.54   104.02   
 101.58   99.25    97.01    94.71    92.40    89.97    87.53    85.01    82.35    79.70    
 76.93    74.36    71.83    68.97    66.25    63.48    60.28    56.94    54.09    51.04    
 47.62    44.39    41.30    38.47    35.47    31.78    20.85    10.26    7.99     7.33     
 8.11     9.45     10.89    12.47    14.16    15.95    17.87    19.88    21.98    24.08    
 26.19    28.29    30.43    32.56    34.60    36.63    38.64    40.61    42.58    44.67    
 46.92    49.93    53.23    57.47    61.80    67.73    75.41    84.16    94.27    105.20   
 116.04   
365584.06 363689.22 359524.35 351427.91 335353.56 308495.69 269335.77 224531.06 182041.36 147548.44 
 120354.55 102443.73 84612.38 72689.54 63528.17 55972.40 50191.08 45424.04 41025.72 36950.31 
 33106.70 29679.48 26449.34 23434.04 20779.86 18543.32 16582.65 14889.49 13363.18 11988.33 
 10797.97 9609.34  8700.43  8022.07  7532.18  7180.76  6898.93  6657.30  6433.40  6238.59  
 6072.45  5907.39  5765.92  5643.48  5523.20  5400.13  5275.85  5161.56  5055.36  4944.02  
 4826.15  4696.32  4561.97  4439.58  4318.10  4184.23  4045.05  3895.42  3744.49  3597.57  
 3449.87  3306.96  3158.11  3015.59  2877.53  2737.11  2596.68  2454.64  2302.58  2153.64  
 2005.13  1867.83  1732.19  1590.20  1450.95  1324.91  1200.60  1081.25  961.94   862.02   
 774.50   693.68   618.72   552.37   500.60   459.05   423.63   391.71   365.63   346.62   
 327.68   308.00   289.35   273.56   259.56   248.10   238.57   230.43   223.21   216.81   
 210.81   205.55   200.64   196.59   192.50   188.77   185.73   182.94   180.34   177.90   
 175.86   173.81   171.77   169.86   168.16   166.25   164.47   162.52   160.31   157.88   
 155.83   153.62   151.53   149.14   147.01   144.80   142.49   140.02   137.51   134.90   
 132.25   129.43   125.93   122.43   119.27   115.96   112.54   108.96   105.58   101.77   
 97.63    93.72    89.92    86.03    82.22    79.10    75.60    70.31    65.40    63.60    
 59.90    56.66    52.18    49.36    45.78    23.88    20.75    21.02    22.40    23.75    
 25.79    28.31    30.95    33.66    36.35    38.79    40.88    42.90    44.71    46.28    
 47.71    49.23    51.21    53.93    57.68    63.15    70.54    79.86    90.26    101.58   
 116.04   
365584.06 364048.71 360667.42 354372.88 341504.92 315858.87 272866.08 229873.31 186954.88 151345.29 
 124120.09 103936.58 88765.15 76483.37 66498.13 58605.90 52247.06 46733.31 42093.61 37822.53 
 33854.32 30181.21 27192.51 24203.81 21223.79 19002.49 17058.59 15352.29 13957.41 12777.44 
 11750.45 10792.66 10070.81 9552.09  9121.25  8692.17  8312.24  7936.87  7608.71  7324.82  
 7072.19  6830.82  6613.69  6408.05  6230.04  6058.09  5892.64  5736.72  5575.45  5401.53  
 5236.91  5083.05  4927.91  4766.82  4604.57  4448.79  4301.45  4158.16  4020.46  3882.06  
 3752.40  3618.48  3463.33  3301.00  3138.28  2971.80  2795.04  2627.23  2459.44  2292.39  
 2130.96  1968.62  1809.30  1661.83  1514.25  1381.57  1251.48  1128.73  1016.19  913.28   
 821.21   734.15   656.10   595.01   544.24   501.06   463.97   429.16   404.35   384.84   
 365.91   345.01   325.15   306.06   290.58   278.18   268.95   261.53   255.78   251.31   
 247.49   244.11   241.59   239.34   237.09   234.85   233.94   233.09   232.59   232.34   
 232.34   232.41   232.50   232.61   232.30   231.87   230.84   229.17   227.04   224.45   
 220.77   216.56   211.94   207.31   202.74   198.17   193.79   189.65   185.62   181.66   
 177.89   174.17   170.19   166.24   162.12   157.95   153.55   148.77   144.17   139.25   
 133.45   127.83   122.40   116.46   111.71   107.03   102.85   98.99    95.98    93.32    
 91.00    86.34    81.39    78.38    76.22    73.47    70.03    65.45    62.46    41.06    
 28.16    29.90    31.67    34.24    37.28    40.40    43.28    45.95    48.02    49.71    
 51.09    52.20    53.33    54.86    57.40    61.40    67.63    76.15    86.67    98.09    
 116.04   
365584.06 363921.71 360701.68 355132.85 342178.68 314348.73 272345.04 225103.57 182755.22 147413.46 
 121272.76 104089.26 86982.27 75056.62 65368.99 57408.32 50935.07 45525.18 41089.42 36872.37 
 33151.23 29691.54 26562.28 23811.54 21530.70 19665.14 18210.46 17062.87 16119.73 15277.35 
 14507.04 13788.76 13122.34 12491.96 11889.57 11278.10 10666.55 10061.72 9519.81  9030.94  
 8599.43  8210.94  7856.49  7524.79  7211.73  6902.04  6630.06  6358.39  6113.61  5891.09  
 5686.96  5489.22  5337.18  5217.22  5097.56  4997.53  4920.93  4832.09  4715.49  4530.47  
 4294.76  4114.54  3908.63  3723.27  3517.29  3305.51  3106.10  2885.16  2663.62  2460.53  
 2270.83  2097.68  1920.32  1753.66  1599.91  1459.51  1328.84  1202.27  1090.43  978.71   
 884.03   796.88   722.79   661.54   609.91   565.40   523.46   487.20   462.20   440.80   
 419.47   395.34   372.13   350.06   332.61   316.93   304.63   295.93   289.30   284.75   
 281.52   279.81   278.89   278.58   278.83   279.53   280.95   281.74   281.97   282.40   
 283.22   284.40   285.96   287.31   288.44   288.75   288.45   286.90   284.26   280.18   
 275.23   269.44   262.62   255.44   247.87   240.21   232.90   225.80   219.11   212.71   
 206.57   200.95   195.81   190.68   185.80   180.75   168.41   161.10   156.81   152.85   
 148.08   142.99   138.93   134.58   130.06   124.38   118.70   113.97   108.66   105.83   
 103.01   100.98   99.03    97.12    92.88    88.95    87.80    85.56    84.12    75.31    
 72.53    40.49    34.75    37.58    40.45    43.55    46.68    49.68    52.31    54.34    
 55.50    56.48    57.20    58.04    59.76    63.31    69.27    78.18    89.17    101.32   
 116.04   
365584.06 364134.72 361636.73 357166.13 345963.84 319666.81 275637.99 231609.15 187646.41 150208.62 
 122848.65 103593.36 87912.39 75609.12 65713.66 57620.76 50866.23 45539.41 40903.55 36987.24 
 33427.64 30251.11 27448.79 25287.18 23134.17 21736.38 20816.74 20160.91 19730.78 19259.62 
 18702.27 18004.85 17191.27 16259.57 15325.29 14373.97 13438.41 12516.41 11693.65 10945.72 
 10269.92 9673.54  9148.12  8709.15  8305.61  7957.43  7621.26  7285.69  6968.14  6652.49  
 6395.29  6178.54  6002.12  5888.58  6073.36  6438.36  6626.90  6924.44  6949.55  6660.51  
 6284.44  5787.56  5316.53  4899.24  4528.84  4075.88  3750.18  3346.31  3005.20  2764.97  
 2524.75  2285.11  2094.30  1921.44  1760.00  1603.70  1462.33  1321.96  1199.05  1083.82  
 982.23   886.46   806.22   736.46   678.16   625.40   578.06   535.80   505.45   479.56   
 455.71   429.74   403.32   377.90   357.41   339.20   324.66   313.57   304.31   298.19   
 294.29   291.99   290.92   290.66   291.01   291.67   293.07   294.22   293.55   292.03   
 289.64   287.81   286.42   285.19   283.50   281.75   279.39   276.38   272.88   268.42   
 262.95   257.15   251.10   245.29   238.16   231.05   225.14   219.35   213.85   208.56   
 203.49   198.55   193.74   188.79   183.92   179.21   174.37   167.00   156.55   152.62   
 148.59   144.60   140.63   136.51   132.31   128.39   124.45   119.90   111.22   109.22   
 104.64   104.78   103.50   101.27   99.66    99.38    96.87    94.89    92.86    88.75    
 78.89    73.77    39.63    40.76    43.42    45.99    49.05    52.27    55.17    57.65    
 59.46    60.79    61.54    61.88    62.77    64.92    69.18    76.97    88.41    102.09   
 116.04   
365584.06 364237.15 361728.11 357226.68 345132.14 318806.26 277817.45 231300.52 187226.75 149831.17 
 122401.69 104947.38 87578.28 75496.45 65458.93 57296.33 50597.54 45370.45 40786.87 36818.76 
 33105.74 29771.12 26772.49 24137.19 22043.75 20458.01 19383.63 18664.01 18178.39 17793.97 
 17339.29 16741.46 16015.63 15276.78 14462.58 13631.89 12769.37 11922.46 11176.82 10431.95 
 9823.63  9227.87  8695.62  8234.57  7833.98  7471.65  7133.34  6802.46  6515.03  6255.26  
 6019.26  5811.26  5620.78  5456.14  5372.79  5395.35  5334.93  5229.21  5040.78  4813.11  
 4556.60  4354.29  4139.40  3937.22  3755.22  3509.61  3271.44  3023.31  2796.77  2592.51  
 2408.51  2225.07  2036.53  1861.87  1695.36  1549.00  1411.24  1274.77  1164.77  1055.00  
 945.23   852.11   773.44   707.26   651.44   602.98   558.43   518.84   490.23   466.39   
 442.89   418.01   393.59   369.18   349.82   331.73   317.69   306.81   297.94   291.12   
 285.57   281.16   277.71   274.61   271.86   268.90   266.50   263.67   260.19   256.49   
 252.44   248.51   244.89   241.40   237.96   234.56   231.07   226.90   222.80   218.40   
 214.17   210.20   205.93   201.75   197.86   194.03   190.23   186.23   182.40   178.65   
 174.77   170.93   167.23   163.61   159.86   156.24   149.42   142.53   139.37   136.05   
 133.35   130.26   126.70   123.14   119.74   116.91   114.11   111.01   106.76   97.81    
 95.93    94.98    96.29    94.85    92.55    90.53    89.46    88.16    86.35    79.93    
 76.26    43.09    41.07    43.40    45.74    49.00    52.43    55.60    58.49    60.94    
 62.88    64.37    65.29    65.83    66.59    68.41    72.08    78.57    88.10    100.52   
 116.04   
365584.06 364610.15 362385.80 357996.35 347608.82 324887.51 289018.57 244540.08 200115.36 160995.90 
 129901.82 108024.75 91504.34 78497.39 67891.71 59547.01 52639.90 47024.27 42073.62 37884.75 
 34136.76 30509.81 27111.62 24377.03 21649.60 19549.25 17713.19 16178.03 14923.42 13955.43 
 13149.71 12388.86 11719.20 11215.26 10760.17 10300.57 9797.25  9324.51  8897.07  8507.44  
 8132.24  7822.63  7505.76  7228.25  6956.24  6710.39  6474.54  6273.13  6069.63  5858.16  
 5650.51  5461.52  5291.24  5113.88  4939.18  4759.38  4590.50  4429.77  4281.13  4138.52  
 3997.42  3848.98  3688.80  3518.58  3345.99  3168.80  2980.78  2792.47  2613.58  2434.87  
 2271.72  2109.23  1948.57  1796.04  1642.72  1504.69  1367.65  1238.33  1120.59  1011.27  
 910.50   817.07   733.17   663.09   606.25   557.00   514.76   477.23   447.21   424.94   
 404.43   383.21   360.47   337.29   319.80   303.00   289.29   278.01   268.11   260.05   
 253.38   247.40   241.36   235.31   229.28   224.63   220.17   215.93   211.93   208.08   
 204.45   200.92   197.62   194.52   191.45   188.63   185.59   182.57   179.77   176.78   
 173.77   170.36   167.22   164.26   161.37   158.55   155.64   152.68   149.86   147.17   
 144.58   141.92   139.27   136.37   133.66   130.94   128.11   124.99   121.86   119.28   
 115.94   112.01   107.43   102.92   97.77    94.62    91.60    89.15    81.05    80.12    
 79.04    80.99    78.28    75.95    73.44    70.95    69.68    66.18    64.35    39.18    
 36.25    38.45    40.42    43.42    46.89    50.44    53.89    57.23    60.32    63.07    
 65.55    67.82    69.59    70.70    71.86    73.93    77.54    83.15    90.92    100.27   
 116.04   
365584.06 364676.28 362207.98 356749.44 345231.38 323637.26 290222.29 247853.49 204131.22 164322.56 
 133394.19 114766.15 96243.45 77720.76 67333.10 58866.53 52103.49 46668.74 41856.88 37601.50 
 33799.01 30087.81 26710.35 23581.61 20780.14 18401.81 16407.73 14691.13 13197.56 11943.77 
 10929.22 9916.92  9167.13  8611.77  8191.12  7865.68  7584.44  7336.12  7127.25  6930.55  
 6746.00  6562.38  6391.62  6245.88  6104.38  5970.96  5813.89  5672.30  5531.25  5387.78  
 5239.87  5085.10  4928.25  4789.06  4656.06  4506.64  4347.42  4185.32  4021.98  3859.03  
 3700.11  3544.46  3389.62  3238.00  3085.60  2940.02  2794.91  2652.62  2499.89  2341.05  
 2183.77  2034.95  1890.61  1745.11  1602.81  1469.77  1341.24  1208.34  1094.52  980.87   
 884.20   796.16   712.60   638.89   574.82   524.50   482.18   447.42   416.05   393.42   
 373.10   351.99   331.78   311.40   293.14   277.76   264.64   253.80   244.02   234.93   
 226.29   219.08   212.26   205.89   200.04   194.49   189.66   184.90   180.53   176.34   
 172.54   168.66   165.29   162.02   158.96   156.17   153.76   151.11   148.45   145.74   
 143.43   141.03   138.46   135.97   133.78   131.56   129.16   126.62   124.07   121.97   
 119.53   116.57   114.28   111.61   109.10   106.53   103.54   100.63   97.59    94.31    
 90.45    87.00    83.35    78.99    74.41    60.38    61.08    58.05    56.88    55.19    
 51.77    49.19    44.89    42.38    36.00    23.54    23.65    27.08    29.57    31.98    
 35.32    39.05    42.74    46.32    49.69    52.92    55.93    58.80    61.37    63.68    
 65.89    68.11    70.38    72.47    74.69    78.03    82.56    88.28    95.24    103.71   
 116.04   
365584.06 365163.88 362967.78 357779.90 347184.71 327807.61 298717.75 258404.08 218090.41 177822.41 
 141974.13 114346.42 93173.06 77314.65 65406.92 56151.17 48771.88 42904.11 38127.59 34026.67 
 30392.76 27037.29 23681.82 20335.00 17760.98 15499.47 13595.01 11983.54 10737.10 9782.16  
 9006.09  8364.39  7835.48  7421.10  7131.12  6880.12  6669.87  6481.88  6311.81  6164.34  
 6030.80  5889.32  5756.85  5639.62  5520.87  5410.75  5281.61  5138.78  4990.32  4841.26  
 4708.64  4576.88  4449.92  4322.15  4198.81  4072.31  3949.53  3837.16  3723.54  3605.01  
 3478.28  3335.93  3195.17  3052.99  2924.72  2791.66  2656.66  2521.66  2386.86  2252.74  
 2117.16  1978.21  1836.03  1704.75  1579.06  1455.88  1330.32  1207.71  1097.90  993.64   
 894.77   800.09   715.28   641.25   577.55   521.79   472.69   435.40   406.11   382.15   
 363.68   345.53   325.07   306.32   289.40   274.31   260.99   247.94   234.89   221.87   
 211.43   201.50   192.72   184.50   177.23   170.56   164.06   158.22   152.88   148.37   
 144.08   140.27   136.39   132.76   129.05   125.48   122.14   118.97   116.03   112.99   
 110.15   107.14   103.89   100.89   98.39    95.48    92.45    89.67    86.49    83.64    
 80.04    76.68    73.57    70.18    67.11    63.05    59.17    55.17    50.66    48.87    
 44.37    41.96    39.25    35.99    32.07    28.00    15.24    9.54     7.87     8.64     
 10.11    11.80    13.77    15.94    18.35    21.03    23.95    27.02    30.31    33.74    
 37.21    40.66    44.08    47.43    50.72    53.89    56.76    59.55    62.09    64.46    
 66.85    69.19    71.45    74.17    77.42    81.54    86.69    92.76    99.79    107.79   
 116.04   
365584.06 365200.39 362894.66 357516.10 347029.74 328213.65 300686.38 263521.27 221308.42 179406.10 
 142108.32 118644.90 95300.34 71955.80 58902.57 48779.80 41148.73 35122.75 30443.24 26394.60 
 23057.10 20126.39 17437.11 14864.89 12698.22 11375.58 10059.62 8743.65  8087.64  7606.83  
 7228.46  6922.95  6630.56  6385.29  6179.83  6009.69  5853.91  5710.71  5588.47  5471.66  
 5372.58  5281.69  5184.06  5070.29  4947.54  4802.20  4636.56  4470.36  4307.77  4162.11  
 4021.39  3893.17  3769.88  3654.28  3528.30  3405.44  3290.24  3179.94  3071.69  2965.06  
 2848.79  2734.36  2627.27  2519.44  2405.19  2294.08  2185.02  2077.98  1965.33  1856.25  
 1742.38  1635.70  1524.96  1412.69  1298.39  1190.50  1095.86  1001.35  912.18   826.96   
 747.95   673.11   603.11   541.11   485.27   437.02   392.42   357.11   330.24   309.46   
 290.63   275.19   256.63   241.63   224.71   210.02   197.69   185.13   172.25   160.76   
 149.80   140.02   131.02   122.46   113.91   107.99   101.91   96.06    90.95    85.94    
 81.22    77.07    73.31    68.99    65.08    61.27    57.58    54.21    50.77    47.34    
 43.91    40.67    37.32    34.12    31.11    27.99    24.72    21.27    17.49    13.51    
 9.55     6.78     5.05     3.77     3.18     3.19     3.37     3.59     3.83     4.10     
 4.42     4.80     5.25     5.77     6.38     7.18     8.10     9.20     10.43    11.82    
 13.42    15.17    17.13    19.28    21.65    24.17    26.90    29.80    32.77    35.83    
 38.96    42.10    45.26    48.43    51.60    54.63    57.70    60.79    63.66    66.40    
 69.17    71.98    74.93    78.06    81.84    86.33    91.80    98.35    105.88   114.32   
 116.04   
365584.06 365243.99 363235.82 359008.38 350235.81 334458.95 307231.28 271736.77 229272.77 185351.09 
 143926.24 117814.76 91877.83 65940.90 52713.12 42787.56 34791.19 28826.86 24072.22 20508.89 
 17834.73 15339.76 13105.80 11572.37 10046.78 8521.19  7617.64  6935.59  6400.51  6024.68  
 5698.13  5405.95  5128.11  4887.03  4669.86  4474.04  4294.38  4124.86  3953.51  3807.50  
 3660.23  3523.67  3382.87  3238.04  3086.80  2941.86  2785.04  2634.86  2486.74  2353.38  
 2222.53  2094.52  1977.67  1862.95  1757.81  1658.34  1562.52  1467.93  1382.52  1294.02  
 1207.87  1126.53  1045.24  967.04   890.12   816.04   744.90   672.82   605.60   539.82   
 482.06   425.90   372.08   322.67   278.54   239.57   205.46   173.24   144.86   124.58   
 104.39   84.20    69.18    55.82    45.85    38.55    16.94    8.63     5.04     2.15     
 1.95     1.86     1.83     1.83     1.88     1.94     2.01     2.10     2.18     2.27     
 2.36     2.46     2.57     2.67     2.78     2.90     3.03     3.16     3.28     3.42     
 3.56     3.72     3.89     4.06     4.24     4.43     4.64     4.85     5.06     5.30     
 5.53     5.78     6.02     6.28     6.54     6.80     7.07     7.34     7.61     7.89     
 8.19     8.49     8.82     9.18     9.56     10.02    10.53    11.11    11.81    12.67    
 13.67    14.91    16.45    18.28    20.50    23.19    26.47    30.60    35.62    41.51    
 48.30    56.01    64.62    73.97    84.09    94.62    105.39   116.48   127.48   138.16   
 148.23   157.65   166.24   173.78   180.25   185.48   189.48   192.08   193.24   192.85   
 190.98   187.76   183.39   178.02   171.88   165.19   157.80   149.44   140.54   131.21   
 116.04   
365584.06 365372.06 363611.29 360558.19 354021.97 341514.93 318401.74 286047.42 243220.56 200374.37 
 155114.15 119072.84 91049.93 68942.94 53860.10 43270.19 34792.49 29007.91 23223.34 17461.88 
 14809.75 12473.69 10375.01 8423.59  6741.82  5662.73  4771.26  4052.19  3542.35  3129.27  
 2818.90  2508.53  2198.68  1956.30  1729.96  1540.56  1375.18  1222.23  1060.80  907.75   
 777.59   654.76   543.92   444.94   362.08   302.36   242.65   183.10   143.42   113.18   
 93.36    76.79    64.45    55.40    47.98    40.72    35.80    32.05    28.88    26.35    
 24.16    22.36    20.87    19.70    18.76    17.98    17.25    16.31    15.38    14.48    
 14.06    13.94    14.05    14.06    14.25    14.47    14.63    14.78    14.79    14.71    
 14.36    13.45    11.66    8.44     4.86     1.72     1.59     1.65     1.71     1.79     
 1.88     1.95     2.05     2.15     2.26     2.38     2.50     2.63     2.76     2.91     
 3.05     3.20     3.35     3.51     3.68     3.85     4.03     4.22     4.40     4.60     
 4.80     5.02     5.24     5.46     5.68     5.92     6.17     6.44     6.71     6.97     
 7.24     7.52     7.80     8.08     8.37     8.65     8.94     9.25     9.55     9.87     
 10.21    10.58    10.98    11.43    11.95    12.52    13.18    13.94    14.80    15.86    
 17.08    18.48    20.17    22.10    24.47    27.32    30.68    34.78    39.57    45.48    
 52.13    59.83    68.25    77.50    87.53    97.99    108.89   119.65   130.58   141.10   
 150.88   160.05   168.17   175.28   181.23   186.07   189.61   191.94   192.87   192.30   
 190.39   187.24   183.03   177.76   171.76   165.19   157.62   149.17   139.69   129.61   
 116.04   
365584.06 365128.91 363549.35 360973.54 355985.19 345643.20 326771.77 294155.96 249853.07 190154.16 
 136605.36 107965.44 79609.16 51252.88 39675.18 30078.67 21673.02 17162.71 13950.57 11345.13 
 8746.92  6148.72  4297.80  3242.64  2395.26  1063.96  806.59   560.54   419.94   328.34   
 244.12   188.19   156.84   132.72   115.40   98.17    84.94    73.21    64.57    57.20    
 50.41    44.84    40.13    35.97    32.32    29.41    26.76    24.89    22.71    21.19    
 19.75    18.19    16.03    14.19    12.35    10.71    9.57     8.77     8.07     7.50     
 6.88     6.47     6.32     6.22     6.06     6.00     5.95     5.85     5.77     5.69     
 5.61     5.56     5.46     5.31     5.18     5.04     4.78     4.41     3.98     3.58     
 3.12     2.63     2.12     1.96     1.94     1.94     2.02     2.10     2.19     2.28     
 2.39     2.51     2.62     2.76     2.90     3.06     3.22     3.39     3.56     3.75     
 3.93     4.11     4.31     4.52     4.72     4.94     5.16     5.39     5.61     5.85     
 6.09     6.35     6.60     6.86     7.12     7.39     7.67     7.94     8.21     8.50     
 8.78     9.07     9.37     9.66     9.96     10.27    10.60    10.95    11.32    11.71    
 12.13    12.58    13.08    13.61    14.26    15.00    15.83    16.77    17.83    19.01    
 20.40    22.00    23.84    25.99    28.44    31.30    34.75    38.88    43.74    49.56    
 56.39    64.02    72.48    81.94    92.41    103.35   114.46   125.62   137.12   148.27   
 158.47   167.70   176.28   183.25   188.97   193.15   195.92   196.94   196.40   194.54   
 191.58   187.61   182.77   177.36   171.35   164.45   156.91   148.24   138.81   128.45   
 116.04   
365584.06 365376.07 364135.87 362284.36 358301.10 349886.01 319452.44 268982.92 218513.38 168093.64 
 124114.22 82354.25 54599.22 41320.52 30476.46 19666.66 12603.14 9652.97  5568.74  1511.95  
 1141.98  816.92   506.97   343.10   278.15   213.20   148.63   125.79   100.60   78.17    
 66.22    57.95    51.48    46.20    41.95    37.80    34.40    31.48    28.69    26.28    
 24.35    22.30    20.23    18.27    16.03    13.79    11.93    10.58    9.43     8.58     
 7.87     7.17     6.56     6.03     5.63     5.30     5.00     4.75     4.55     4.35     
 4.15     3.96     3.79     3.66     3.53     3.42     3.30     3.16     3.05     2.96     
 2.90     2.81     2.72     2.59     2.47     2.36     2.26     2.17     2.09     2.02     
 1.96     1.96     1.97     2.01     2.06     2.13     2.21     2.29     2.38     2.47     
 2.57     2.69     2.78     2.90     3.04     3.18     3.33     3.48     3.64     3.81     
 3.99     4.17     4.36     4.56     4.76     4.97     5.19     5.42     5.63     5.87     
 6.12     6.38     6.64     6.91     7.16     7.46     7.74     8.05     8.34     8.64     
 8.95     9.28     9.61     9.96     10.31    10.68    11.08    11.51    11.98    12.48    
 13.01    13.59    14.21    14.90    15.66    16.50    17.47    18.56    19.72    21.00    
 22.52    24.22    26.08    28.24    30.69    33.56    36.87    40.75    45.34    50.92    
 57.34    64.91    73.30    82.78    93.25    104.33   116.18   128.07   140.26   152.13   
 163.34   173.73   182.80   190.52   196.27   200.29   202.48   202.69   201.22   198.88   
 194.93   189.63   183.41   176.71   169.42   161.92   153.80   144.82   135.19   124.60   
 116.04   
365584.06 365245.87 364335.03 362234.95 357991.82 328354.61 278619.62 236901.45 192135.39 140201.05 
 106818.01 73652.48 40486.93 25179.73 16357.60 11292.08 6265.02  1237.95  943.09   707.29   
 438.07   225.42   209.43   135.03   121.53   108.71   96.65    70.98    67.88    51.15    
 42.60    38.18    32.26    29.80    26.04    24.25    21.75    19.58    17.20    15.07    
 12.92    11.57    10.37    9.76     9.37     8.91     8.11     7.57     7.53     7.01     
 6.78     6.29     5.73     5.38     4.55     4.09     3.92     3.79     3.66     3.51     
 3.36     3.21     3.08     2.94     2.82     2.71     2.60     2.52     2.42     2.34     
 2.26     2.19     2.13     2.06     2.02     1.97     1.94     1.92     1.89     1.87     
 1.87     1.88     1.89     1.94     2.00     2.06     2.15     2.22     2.32     2.42     
 2.53     2.65     2.76     2.88     3.02     3.17     3.33     3.48     3.66     3.84     
 4.02     4.21     4.41     4.62     4.84     5.08     5.32     5.56     5.82     6.09     
 6.37     6.65     6.95     7.25     7.56     7.87     8.20     8.53     8.87     9.21     
 9.56     9.92     10.30    10.68    11.08    11.51    11.95    12.44    12.93    13.49    
 14.06    14.72    15.44    16.23    17.14    18.14    19.21    20.40    21.72    23.20    
 24.83    26.59    28.57    30.84    33.39    36.33    39.60    43.47    48.14    53.64    
 60.06    67.58    76.30    85.91    96.64    108.01   119.80   132.16   144.74   157.28   
 169.19   180.14   189.81   197.70   203.58   207.33   208.91   208.33   205.99   202.09   
 196.95   190.60   183.68   176.07   168.07   159.74   150.96   141.77   131.96   121.31   
 116.04   
365584.06 365576.62 364689.92 362795.65 358498.68 316947.82 270480.21 224012.58 177482.27 122761.46 
 89552.02 53630.08 40426.57 27223.07 14019.56 937.55   998.82   475.23   290.54   377.58   
 284.34   191.25   117.87   98.92    62.67    36.28    25.96    20.01    17.29    15.37    
 14.21    13.37    12.81    12.01    11.31    10.35    9.07     7.82     6.80     6.01     
 5.43     4.94     4.53     4.15     3.77     3.50     3.32     3.23     3.12     2.99     
 2.89     2.77     2.69     2.62     2.54     2.47     2.42     2.37     2.31     2.26     
 2.21     2.17     2.15     2.13     2.09     2.06     2.02     2.00     1.97     1.95     
 1.93     1.90     1.90     1.87     1.86     1.86     1.86     1.86     1.86     1.86     
 1.89     1.91     1.94     1.99     2.04     2.11     2.17     2.24     2.31     2.38     
 2.48     2.57     2.66     2.77     2.89     3.02     3.17     3.31     3.48     3.66     
 3.86     4.07     4.30     4.54     4.80     5.06     5.35     5.63     5.93     6.22     
 6.53     6.85     7.16     7.46     7.77     8.09     8.43     8.79     9.14     9.50     
 9.86     10.27    10.69    11.12    11.57    12.06    12.56    13.10    13.65    14.22    
 14.81    15.48    16.21    17.00    17.87    18.84    19.91    21.08    22.31    23.68    
 25.27    27.00    28.92    31.12    33.59    36.49    39.74    43.52    47.93    53.36    
 59.75    67.40    76.27    86.23    97.35    108.95   121.29   133.61   146.37   159.01   
 171.14   182.93   193.34   202.23   208.82   213.19   215.23   214.97   212.59   208.53   
 203.19   196.64   189.56   181.58   173.02   164.34   155.17   145.57   135.48   124.86   
 116.04   
365584.06 365402.33 364215.03 361831.47 357063.77 307770.96 260180.54 216364.72 163718.00 116606.75 
 82691.87 48930.21 26208.35 6515.14  508.58   313.73   177.94   42.14    29.36    22.39    
 19.19    16.17    13.90    12.25    10.96    9.79     8.73     7.87     7.26     7.05     
 7.36     7.65     7.74     7.37     6.94     6.56     5.88     5.47     5.24     5.14     
 5.17     4.89     4.61     4.21     3.91     3.52     3.37     3.29     3.13     2.96     
 2.72     2.59     2.54     2.54     2.49     2.49     2.47     2.47     2.42     2.38     
 2.37     2.36     2.36     2.36     2.35     2.35     2.35     2.34     2.34     2.33     
 2.34     2.34     2.34     2.34     2.35     2.35     2.36     2.37     2.38     2.40     
 2.41     2.42     2.43     2.44     2.56     2.74     2.88     3.00     3.08     3.14     
 3.20     3.29     3.41     3.49     3.54     3.59     3.68     3.76     3.90     4.06     
 4.25     4.45     4.69     4.95     5.23     5.52     5.83     6.15     6.47     6.77     
 7.06     7.34     7.60     7.86     8.13     8.41     8.71     9.04     9.40     9.78     
 10.19    10.62    11.08    11.55    12.03    12.53    13.10    13.71    14.35    15.01    
 15.70    16.41    17.18    17.98    18.83    19.74    20.71    21.78    22.98    24.30    
 25.76    27.41    29.31    31.49    33.94    36.90    40.30    44.17    48.67    54.28    
 61.19    69.26    78.49    88.64    99.75    112.07   124.64   137.04   149.76   162.40   
 174.42   185.64   196.46   205.11   211.62   215.74   217.33   216.64   213.91   209.33   
 203.54   196.76   189.37   181.53   173.35   164.86   156.34   147.38   138.19   128.09   
 116.04   
