IESNA:LM-63-2002
[TEST] 1
[TESTLAB] AOK
[TESTDATE] 2022-05-14
[ISSUEDATE] 2022-05-16 08:09:09
[NEARFIELD] 
[LAMPPOSITION] 0,0
[OTHER] EVERFINE GO-2000A_V1 SYSTEM
[MANUFAC] AOK
[LUMCAT] A
[LUMINAIRE] AOK-400WiSF-NVY-S5-00-5070-3585D-P
[LAMPCAT] B
[LAMP] 5050
[BALLAST] E
[BALLASTCAT] F
[OTHER] 
[OTHER] Gamma(deg)    Fz(lm)      Ft(lm)     %Lum    %Lamp
[OTHER]   0- 10      4163.06     4163.06     7.34     7.34
[OTHER]  10- 20      9759.26    13922.31    24.56    24.56
[OTHER]  20- 30     11527.54    25449.86    44.90    44.90
[OTHER]  30- 40     10947.37    36397.23    64.21    64.21
[OTHER]  40- 50      8960.92    45358.15    80.02    80.02
[OTHER]  50- 60      6299.04    51657.19    91.14    91.14
[OTHER]  60- 70      3450.26    55107.45    97.22    97.22
[OTHER]  70- 80      1271.81    56379.26    99.47    99.47
[OTHER]  80- 90       187.14    56566.40    99.80    99.80
[OTHER]  90-100         3.19    56569.59    99.80    99.80
[OTHER] 100-110         4.84    56574.43    99.81    99.81
[OTHER] 110-120         8.47    56582.90    99.83    99.83
[OTHER] 120-130        13.05    56595.95    99.85    99.85
[OTHER] 130-140        17.81    56613.76    99.88    99.88
[OTHER] 140-150        21.52    56635.28    99.92    99.92
[OTHER] 150-160        22.24    56657.52    99.96    99.96
[OTHER] 160-170        17.67    56675.19    99.99    99.99
[OTHER] 170-180         6.86    56682.05   100.00   100.00
[OTHER] 
TILT=NONE
1 56682 1 181 25 1 2 0.150 0.200 0.000
1.000 1 383.832
0.0    1.0    2.0    3.0    4.0    5.0    6.0    7.0    8.0    9.0    
 10.0   11.0   12.0   13.0   14.0   15.0   16.0   17.0   18.0   19.0   
 20.0   21.0   22.0   23.0   24.0   25.0   26.0   27.0   28.0   29.0   
 30.0   31.0   32.0   33.0   34.0   35.0   36.0   37.0   38.0   39.0   
 40.0   41.0   42.0   43.0   44.0   45.0   46.0   47.0   48.0   49.0   
 50.0   51.0   52.0   53.0   54.0   55.0   56.0   57.0   58.0   59.0   
 60.0   61.0   62.0   63.0   64.0   65.0   66.0   67.0   68.0   69.0   
 70.0   71.0   72.0   73.0   74.0   75.0   76.0   77.0   78.0   79.0   
 80.0   81.0   82.0   83.0   84.0   85.0   86.0   87.0   88.0   89.0   
 90.0   91.0   92.0   93.0   94.0   95.0   96.0   97.0   98.0   99.0   
 100.0  101.0  102.0  103.0  104.0  105.0  106.0  107.0  108.0  109.0  
 110.0  111.0  112.0  113.0  114.0  115.0  116.0  117.0  118.0  119.0  
 120.0  121.0  122.0  123.0  124.0  125.0  126.0  127.0  128.0  129.0  
 130.0  131.0  132.0  133.0  134.0  135.0  136.0  137.0  138.0  139.0  
 140.0  141.0  142.0  143.0  144.0  145.0  146.0  147.0  148.0  149.0  
 150.0  151.0  152.0  153.0  154.0  155.0  156.0  157.0  158.0  159.0  
 160.0  161.0  162.0  163.0  164.0  165.0  166.0  167.0  168.0  169.0  
 170.0  171.0  172.0  173.0  174.0  175.0  176.0  177.0  178.0  179.0  
 180.0  
0.0    15.0   30.0   45.0   60.0   75.0   90.0   105.0  120.0  135.0  
 150.0  165.0  180.0  195.0  210.0  225.0  240.0  255.0  270.0  285.0  
 300.0  315.0  330.0  345.0  360.0  
46378.75 47858.05 49021.58 49623.58 49538.62 48265.94 46013.93 44275.20 42776.18 41564.65 
 40483.05 39319.86 37934.17 36154.24 34144.42 32211.36 30647.72 29296.90 28015.91 27344.39 
 27024.23 26846.58 26579.60 26275.96 25912.57 25485.20 24974.01 24340.92 23479.72 22398.32 
 21341.86 20392.46 19468.07 18559.78 17620.03 16648.27 15569.29 14501.04 13585.87 12914.68 
 12495.49 12162.42 12087.31 11672.65 11253.93 10880.31 10465.50 10028.95 9558.46  9074.78  
 8601.48  8115.79  7620.32  7130.75  6642.46  6158.18  5652.30  5078.80  4467.23  3990.88  
 3643.22  3311.03  2989.30  2690.53  2428.90  2204.20  1991.55  1798.29  1582.39  1324.51  
 1176.85  1030.37  883.89   758.26   638.82   504.00   414.29   338.30   261.03   204.04   
 154.32   121.90   89.67    57.44    37.79    21.88    7.83     3.71     3.36     2.91     
 2.60     2.52     2.49     2.61     2.73     2.87     3.03     3.20     3.37     3.54     
 3.72     3.91     4.10     4.29     4.48     4.69     4.89     5.08     5.28     5.48     
 5.68     5.88     6.08     6.29     6.49     6.68     6.88     7.07     7.26     7.45     
 7.63     7.81     7.99     8.16     8.33     8.51     8.70     8.91     9.14     9.41     
 9.70     10.02    10.39    10.81    11.29    11.81    12.40    13.08    13.81    14.64    
 15.59    16.65    17.80    19.06    20.47    22.01    23.76    25.69    27.74    29.79    
 31.91    34.20    36.63    39.07    41.55    44.07    46.65    49.27    51.95    54.67    
 57.36    60.08    62.75    65.35    67.78    70.00    72.05    73.88    75.44    76.78    
 77.94    78.88    79.62    80.14    80.47    80.61    80.49    80.09    79.48    78.64    
 77.12    
46378.75 47882.92 49029.08 49789.93 49790.90 49017.43 46798.70 44980.88 43451.10 42102.90 
 41045.53 39947.46 38746.63 37176.51 35306.76 33347.16 31581.39 30100.20 28815.83 27713.49 
 27140.98 26860.37 26670.84 26405.38 26115.54 25773.41 25373.50 24754.73 24135.95 23512.95 
 22464.05 21395.20 20419.84 19505.21 18602.28 17647.89 16724.94 15792.71 14861.93 13915.08 
 13104.20 12578.97 12187.12 11863.98 11535.85 11191.29 10815.27 10397.28 9938.59  9445.51  
 8945.26  8456.01  7976.02  7495.02  7026.89  6563.55  6090.76  5599.53  5030.39  4422.80  
 3943.15  3587.56  3243.48  2922.45  2646.21  2370.33  2141.02  1927.24  1732.40  1513.20  
 1265.16  1099.62  960.13   831.10   709.26   585.53   454.63   374.52   304.89   235.27   
 165.88   123.16   89.73    62.60    41.23    24.40    9.65     3.71     3.41     3.25     
 3.07     2.95     2.82     2.81     2.82     2.89     3.02     3.20     3.37     3.54     
 3.72     3.91     4.09     4.28     4.48     4.68     4.88     5.08     5.28     5.48     
 5.67     5.88     6.09     6.28     6.48     6.68     6.88     7.07     7.25     7.44     
 7.61     7.79     7.98     8.16     8.34     8.52     8.73     8.97     9.22     9.51     
 9.83     10.20    10.63    11.13    11.66    12.25    12.92    13.67    14.46    15.36    
 16.38    17.51    18.71    20.05    21.51    23.14    24.90    26.79    28.77    30.91    
 33.10    35.35    37.61    39.95    42.31    44.68    47.13    49.56    52.11    54.66    
 57.18    59.67    62.09    64.44    66.58    68.54    70.34    71.98    73.42    74.70    
 75.77    76.72    77.48    77.99    78.31    78.39    78.22    77.96    77.30    76.44    
 77.12    
46378.75 47621.21 48639.90 49305.21 49315.94 48891.03 47138.25 45258.48 43747.48 42382.76 
 41228.53 40250.10 39218.49 38095.58 36750.86 35115.83 33379.95 31665.91 30152.92 28847.17 
 27740.84 26861.40 26299.82 26013.80 25789.96 25535.23 25264.38 24935.09 24620.05 24265.84 
 23875.70 23359.11 22565.27 21705.14 20816.69 19923.99 19007.59 18122.49 17232.25 16343.47 
 15525.56 14830.58 14247.37 13641.86 13028.19 12449.90 11970.55 11497.07 11023.65 10525.74 
 10026.53 9490.04  8943.11  8390.07  7840.95  7296.67  6783.20  6276.48  5771.43  5277.98  
 4806.66  4296.55  3760.73  3345.10  3027.56  2711.61  2424.81  2165.12  1936.10  1724.60  
 1530.88  1296.57  1123.08  950.23   777.37   660.41   544.82   413.55   331.34   251.62   
 188.50   127.28   94.48    61.98    40.10    23.68    9.24     3.87     3.53     3.36     
 3.25     3.03     2.93     2.87     2.83     2.96     3.12     3.30     3.47     3.66     
 3.85     4.03     4.22     4.42     4.61     4.81     5.01     5.21     5.42     5.61     
 5.82     6.01     6.22     6.41     6.60     6.79     6.98     7.17     7.36     7.55     
 7.74     7.94     8.16     8.40     8.66     8.94     9.27     9.62     10.02    10.45    
 10.93    11.44    12.03    12.70    13.42    14.22    15.11    16.10    17.18    18.29    
 19.54    20.91    22.40    24.00    25.68    27.47    29.31    31.17    33.09    35.07    
 37.07    39.07    41.10    43.18    45.38    47.57    49.74    51.87    53.98    56.15    
 58.21    60.15    61.93    63.71    65.38    66.87    68.25    69.52    70.63    71.64    
 72.52    73.30    73.92    75.02    75.21    75.22    75.05    74.54    74.09    73.57    
 77.12    
46378.75 47472.42 48311.35 49040.37 49447.85 49373.63 49057.37 47887.66 46134.85 44664.40 
 43365.52 42182.12 41051.60 40076.02 39132.06 38175.58 37150.79 36025.15 34712.79 33344.34 
 31920.71 30517.52 29191.08 28032.32 27001.44 26082.53 25273.20 24743.60 24460.89 24307.88 
 24154.75 23986.69 23790.72 23575.86 23314.08 23068.83 22780.21 22404.80 21854.07 21201.83 
 20561.35 19932.75 19267.23 18521.71 17682.58 16810.49 15940.03 15120.89 14377.14 13705.24 
 13068.24 12468.60 11911.73 11415.30 10876.81 10329.70 9761.67  9192.69  8606.15  8035.66  
 7461.17  6889.14  6322.34  5756.62  5218.26  4707.93  4213.21  3656.83  3138.05  2736.99  
 2336.73  2025.39  1750.44  1499.95  1269.53  1009.88  783.83   639.51   517.42   401.17   
 314.35   227.54   141.05   89.79    59.49    35.43    18.26    5.81     3.67     3.53     
 3.35     3.11     2.90     2.72     2.79     2.96     3.14     3.33     3.51     3.71     
 3.90     4.10     4.30     4.51     4.71     4.92     5.12     5.32     5.54     5.73     
 5.93     6.14     6.35     6.55     6.75     6.98     7.22     7.48     7.75     8.04     
 8.37     8.74     9.15     9.58     10.06    10.58    11.14    11.77    12.45    13.19    
 13.99    14.89    15.90    16.96    18.07    19.27    20.56    21.91    23.29    24.72    
 26.23    27.76    29.29    30.86    32.46    34.10    35.76    37.46    39.16    40.92    
 42.70    44.49    46.24    48.05    49.82    51.54    53.24    54.83    56.37    57.85    
 59.28    60.65    61.93    63.18    64.34    65.44    66.46    67.43    68.37    69.26    
 70.53    71.48    72.26    72.65    72.90    72.97    72.75    72.39    72.18    72.00    
 77.12    
46378.75 47159.18 47764.44 48320.36 48788.78 49124.84 49140.87 48994.98 48728.70 48093.75 
 46960.69 45608.53 44352.72 43208.70 42164.73 41102.04 40065.69 39050.48 38114.46 37214.96 
 36383.01 35528.18 34669.12 33829.77 32978.78 32092.09 31173.37 30268.65 29353.73 28415.00 
 27495.71 26568.77 25665.43 24770.26 23918.65 23103.11 22323.53 21579.93 20897.88 20238.28 
 19606.59 19022.60 18494.48 18006.52 17550.63 17103.00 16655.47 16184.21 15661.30 15066.66 
 14465.00 13857.70 13258.22 12670.69 12091.19 11470.78 10849.88 10211.26 9579.26  8949.74  
 8374.76  7862.70  7388.68  6925.14  6468.93  5998.40  5526.49  5050.57  4604.24  4169.86  
 3741.23  3331.09  2943.85  2535.80  2133.48  1748.04  1455.27  1197.24  978.23   759.67   
 521.71   378.29   261.32   160.55   116.67   73.51    30.36    12.40    4.30     3.86     
 3.30     2.96     2.76     2.85     3.04     3.23     3.43     3.64     3.85     4.07     
 4.30     4.54     4.77     5.01     5.28     5.53     5.81     6.11     6.43     6.75     
 7.11     7.49     7.89     8.33     8.79     9.28     9.79     10.36    11.00    11.68    
 12.41    13.18    14.02    14.90    15.81    16.78    17.81    18.91    20.05    21.23    
 22.43    23.72    25.02    26.35    27.70    29.07    30.48    31.93    33.37    34.81    
 36.24    37.67    39.13    40.60    42.05    43.50    44.93    46.29    47.64    48.97    
 50.27    51.50    52.67    53.83    54.99    56.08    57.10    58.11    59.09    60.03    
 60.92    61.81    62.67    63.54    64.38    65.17    65.95    66.69    68.39    69.12    
 69.68    70.19    70.48    70.55    70.61    70.63    70.77    70.92    70.99    70.77    
 77.12    
46378.75 46814.95 47182.87 47466.91 47699.18 47915.30 48103.16 48242.69 48310.45 48354.13 
 48345.10 48207.94 47958.99 47650.06 47297.22 46919.66 46445.73 45855.38 45128.99 44292.87 
 43330.82 42325.19 41339.93 40414.48 39513.09 38635.49 37753.92 36872.73 36031.23 35189.33 
 34305.81 33372.11 32434.35 31484.73 30542.99 29593.75 28696.22 27806.82 26937.39 26080.28 
 25267.30 24501.62 23735.76 22946.73 22139.05 21317.81 20514.10 19687.31 18846.88 17966.62 
 17089.01 16236.60 15369.85 14515.87 13716.74 12959.04 12240.64 11548.23 10879.59 10212.03 
 9574.73  8945.15  8321.87  7685.69  7086.72  6513.69  5960.36  5401.06  4850.23  4300.80  
 3774.25  3284.75  2883.39  2482.04  2081.62  1776.25  1485.75  1223.81  983.23   765.75   
 591.21   448.72   351.52   254.32   157.47   97.24    57.11    31.21    14.82    4.40     
 3.85     2.85     2.98     3.22     3.49     3.78     4.09     4.43     4.78     5.18     
 5.56     5.99     6.48     6.98     7.50     8.04     8.61     9.23     9.87     10.54    
 11.24    11.99    12.80    13.65    14.51    15.41    16.39    17.38    18.38    19.43    
 20.53    21.68    22.87    24.06    25.25    26.44    27.71    28.98    30.25    31.53    
 32.81    34.10    35.38    36.66    37.94    39.19    40.43    41.68    42.85    44.02    
 45.17    46.28    47.38    48.45    49.49    50.53    51.54    52.55    53.52    54.51    
 55.49    56.46    57.39    58.34    59.29    60.20    61.08    61.93    62.77    63.58    
 64.37    65.15    65.88    66.61    67.29    67.94    68.55    69.76    70.09    70.48    
 70.73    70.87    71.13    71.46    71.65    71.79    71.81    71.64    71.37    70.98    
 77.12    
46378.75 46362.76 46330.76 46267.17 46175.92 46061.00 45926.35 45775.84 45605.97 45408.12 
 45198.37 44972.83 44735.47 44490.11 44229.11 43967.88 43687.11 43406.00 43097.46 42781.76 
 42445.34 42081.19 41685.44 41262.00 40810.87 40332.05 39825.41 39279.07 38681.70 38063.62 
 37353.07 36573.50 35742.72 34880.51 34006.13 33092.24 32143.11 31190.35 30261.05 29331.59 
 28390.26 27435.51 26443.09 25465.78 24436.57 23407.78 22416.09 21398.79 20360.45 19318.60 
 18248.66 17148.50 16007.47 14890.54 13822.35 12885.91 12027.92 11235.18 10461.93 9694.83  
 8944.82  8233.22  7553.00  6880.08  6252.45  5669.01  5110.56  4588.57  4100.38  3656.79  
 3230.68  2876.10  2521.51  2167.50  1860.24  1580.01  1323.99  1090.04  883.26   712.78   
 565.85   441.44   337.55   259.20   181.12   124.40   79.45    46.63    23.73    9.54     
 1.20     1.23     1.24     1.29     1.41     1.53     1.68     1.84     2.03     2.24     
 2.47     2.72     3.02     3.33     3.66     4.03     4.41     4.83     5.30     5.79     
 6.29     6.80     7.36     7.94     8.55     9.18     9.82     10.50    11.20    11.92    
 12.66    13.42    14.18    14.97    15.79    16.64    17.51    18.37    19.26    20.14    
 21.06    21.96    22.90    23.85    24.80    25.75    26.73    27.72    28.69    29.66    
 30.65    31.64    32.62    33.63    34.64    35.67    36.71    37.73    38.76    39.81    
 40.87    41.90    42.96    44.05    45.17    46.28    47.45    48.67    49.92    51.18    
 52.45    53.71    54.97    56.28    57.56    58.81    59.98    61.33    62.98    64.37    
 65.43    66.45    67.44    68.35    69.19    69.94    70.67    71.35    71.97    72.51    
 77.12    
46378.75 45907.76 45424.41 44921.31 44374.79 43805.89 43207.82 42613.39 42003.28 41381.25 
 40766.97 40195.98 39645.01 39145.30 38665.67 38233.37 37822.24 37441.52 37088.58 36704.50 
 36288.71 35845.14 35377.75 34855.15 34288.84 33667.14 32978.15 32239.53 31423.99 30537.05 
 29614.09 28576.93 27452.31 26303.35 25138.46 23969.52 22784.81 21564.59 20370.95 19213.49 
 18123.11 17025.53 15951.44 14912.90 13949.32 12986.40 12054.91 11200.18 10346.06 9577.73  
 8866.23  8209.69  7618.14  7063.44  6534.15  6021.02  5535.11  5084.49  4670.43  4275.80  
 3929.95  3636.71  3386.03  3164.80  2955.80  2765.22  2593.52  2430.75  2268.05  2100.97  
 1939.84  1781.94  1620.52  1459.82  1301.92  1186.63  1043.67  900.45   769.60   648.42   
 537.35   437.83   348.78   270.33   199.25   140.61   99.17    57.89    35.40    19.63    
 2.92     1.93     1.45     1.52     1.64     1.79     1.95     2.12     2.30     2.50     
 2.71     2.97     3.24     3.55     3.90     4.28     4.68     5.10     5.53     6.01     
 6.50     7.04     7.59     8.20     8.84     9.48     10.14    10.82    11.54    12.30    
 13.06    13.83    14.65    15.50    16.35    17.18    18.05    18.94    19.83    20.74    
 21.63    22.55    23.46    24.40    25.35    26.28    27.23    28.16    29.10    30.03    
 30.98    31.91    32.86    33.81    34.79    35.77    36.73    37.69    38.67    39.67    
 40.67    41.67    42.69    43.75    44.86    45.95    47.08    48.27    49.47    50.69    
 51.94    53.23    54.51    55.85    57.22    58.59    59.93    61.20    62.48    64.26    
 65.94    67.15    68.30    69.35    70.30    71.21    72.10    72.96    73.74    74.44    
 77.12    
46378.75 45499.01 44611.11 43695.24 42732.52 41782.95 40948.61 40252.85 39684.98 39230.18 
 38857.75 38489.21 38115.91 37666.79 37098.88 36419.80 35613.45 34644.71 33522.05 32296.35 
 30999.82 29624.06 28172.96 26644.02 25163.28 23682.54 22202.14 20751.23 19366.18 18044.59 
 16784.92 15583.83 14496.15 13494.64 12595.01 11746.02 10948.72 10191.37 9488.38  8816.36  
 8177.48  7555.57  6953.74  6381.41  5817.28  5238.90  4702.75  4248.15  3908.37  3675.57  
 3524.61  3411.88  3310.74  3216.63  3124.75  3005.31  2910.59  2822.68  2740.34  2658.98  
 2577.61  2496.20  2411.26  2322.76  2222.42  2120.04  2020.34  1919.80  1812.45  1711.64  
 1610.81  1512.05  1417.83  1314.49  1206.40  1096.44  988.78   874.84   767.06   658.61   
 559.44   470.88   387.77   316.37   244.97   173.88   127.87   83.31    56.09    38.22    
 11.25    2.08     1.98     1.89     1.73     1.63     1.71     1.86     2.02     2.20     
 2.39     2.58     2.79     3.03     3.31     3.62     3.97     4.33     4.72     5.13     
 5.58     6.07     6.57     7.10     7.66     8.24     8.83     9.46     10.10    10.78    
 11.50    12.24    13.00    13.75    14.53    15.33    16.14    16.99    17.82    18.68    
 19.56    20.46    21.35    22.24    23.14    24.03    24.95    25.87    26.80    27.73    
 28.71    29.67    30.63    31.62    32.58    33.59    34.56    35.55    36.54    37.55    
 38.50    39.51    40.54    41.58    42.63    43.72    44.83    45.96    47.16    48.38    
 49.64    50.94    52.29    53.73    55.16    56.65    58.16    59.63    61.12    62.61    
 64.07    65.51    67.75    69.01    70.23    71.39    72.53    73.65    74.72    75.71    
 77.12    
46378.75 45130.43 43848.96 42571.17 41439.59 40580.16 39964.77 39548.90 39178.30 38748.94 
 38074.41 37145.15 35941.32 34490.41 32832.13 31045.83 29157.03 27246.58 25395.05 23615.07 
 21898.88 20309.51 18910.70 17624.05 16389.65 15254.41 14183.16 13201.99 12281.88 11497.65 
 10714.73 9931.80  9231.74  8557.23  7888.93  7228.29  6562.50  5917.10  5304.36  4774.11  
 4384.94  4121.46  3959.12  3809.30  3699.99  3622.25  3549.17  3487.74  3436.01  3391.97  
 3328.93  3261.18  3182.60  3091.52  3005.52  2927.56  2846.08  2755.76  2664.97  2578.18  
 2495.83  2410.54  2320.60  2230.21  2122.23  2013.28  1909.53  1807.02  1699.72  1595.19  
 1487.47  1380.13  1274.68  1176.97  1079.33  981.70   889.58   798.90   709.57   614.51   
 533.97   458.51   384.00   317.73   260.38   193.36   138.45   101.73   65.18    43.30    
 11.62    2.09     1.87     1.85     1.80     1.72     1.68     1.67     1.73     1.85     
 2.00     2.16     2.32     2.48     2.67     2.89     3.14     3.41     3.70     4.04     
 4.40     4.78     5.18     5.61     6.06     6.54     7.02     7.52     8.04     8.59     
 9.14     9.69     10.28    10.90    11.52    12.14    12.78    13.47    14.15    14.86    
 15.57    16.30    17.06    17.83    18.63    19.46    20.32    21.18    22.06    22.97    
 23.89    24.83    25.80    26.78    27.80    28.83    29.87    30.94    32.05    33.23    
 34.41    35.62    36.85    38.14    39.44    40.50    41.76    43.05    44.33    45.60    
 46.87    48.23    49.60    51.04    52.57    54.12    55.73    57.34    59.04    60.77    
 62.49    64.25    65.96    67.54    69.02    70.98    72.25    73.49    74.67    75.85    
 77.12    
46378.75 44858.92 43351.03 41859.69 40774.02 40069.36 39655.69 39251.26 38643.79 37612.41 
 36120.95 34320.63 32352.44 30154.86 27858.60 25866.36 23874.12 21886.43 20264.09 18832.62 
 17459.47 16119.28 14874.29 13723.45 12679.40 11732.05 10902.51 10123.16 9373.62  8651.28  
 7968.19  7281.00  6608.73  5950.45  5332.06  4822.47  4478.20  4187.54  4014.21  3917.32  
 3846.41  3781.96  3708.64  3644.82  3610.08  3571.21  3518.87  3439.50  3368.60  3305.22  
 3237.71  3158.16  3071.73  2976.41  2883.58  2785.71  2701.03  2618.86  2536.67  2452.48  
 2369.42  2284.22  2199.49  2114.60  2034.22  1945.67  1853.09  1761.39  1655.39  1557.89  
 1463.93  1371.35  1276.18  1186.51  1098.12  1008.64  914.27   819.38   733.02   652.64   
 573.14   498.84   432.19   363.40   297.83   232.25   166.84   117.74   77.19    52.17    
 20.70    2.16     1.47     1.47     1.47     1.47     1.48     1.50     1.53     1.58     
 1.66     1.77     1.88     2.01     2.15     2.29     2.46     2.66     2.89     3.14     
 3.41     3.70     4.02     4.37     4.75     5.14     5.54     5.98     6.46     6.95     
 7.45     7.96     8.49     9.02     9.58     10.13    10.70    11.29    11.89    12.50    
 13.14    13.77    14.44    15.12    15.82    16.55    17.33    18.13    18.95    19.80    
 20.68    21.56    22.46    23.38    24.31    25.27    26.22    27.20    28.22    29.28    
 30.39    31.53    32.75    34.05    35.42    36.85    38.31    39.81    41.33    42.86    
 44.44    45.90    47.05    48.63    50.21    51.84    53.50    55.12    56.83    58.62    
 60.46    62.31    64.16    65.95    67.62    69.14    70.65    72.16    73.69    75.17    
 77.12    
46378.75 44666.63 42940.56 41504.50 40595.41 40085.27 39675.80 39029.27 37908.29 36215.34 
 34116.27 31791.27 29329.33 26913.92 24697.59 22554.37 20794.17 19258.06 17815.37 16369.60 
 15030.95 13816.33 12733.84 11906.67 10961.30 10014.95 9237.76  8500.16  7770.48  7053.35  
 6371.73  5716.99  5121.66  4658.87  4346.60  4210.36  4138.40  4069.36  4004.15  3947.62  
 3891.99  3848.43  3795.74  3742.96  3682.53  3627.27  3561.18  3474.05  3398.85  3316.89  
 3237.51  3162.76  3091.67  3013.78  2934.62  2858.67  2775.09  2685.42  2594.88  2506.36  
 2417.44  2334.40  2241.92  2154.98  2061.26  1949.36  1851.79  1761.59  1670.25  1579.30  
 1489.56  1403.87  1317.22  1225.10  1126.52  1032.73  938.98   849.20   762.23   678.54   
 598.52   532.18   454.25   369.17   290.25   232.73   178.54   120.22   86.59    53.18    
 19.43    2.04     1.07     1.05     1.07     1.08     1.09     1.10     1.12     1.18     
 1.26     1.36     1.46     1.58     1.73     1.89     2.07     2.25     2.46     2.69     
 2.95     3.21     3.49     3.80     4.14     4.49     4.85     5.25     5.65     6.07     
 6.52     6.98     7.46     7.96     8.47     8.99     9.55     10.11    10.70    11.31    
 11.93    12.57    13.22    13.89    14.59    15.33    16.08    16.84    17.63    18.46    
 19.33    20.23    21.14    22.10    23.09    24.07    25.04    26.02    27.03    28.07    
 29.14    30.24    31.38    32.59    33.86    35.19    36.62    38.15    39.77    41.47    
 43.24    45.08    46.91    48.80    50.64    52.50    54.33    56.03    57.80    59.57    
 60.97    62.81    64.64    66.36    68.03    69.66    71.28    72.87    74.42    75.97    
 77.12    
46378.75 44618.55 42861.88 41415.85 40492.96 40001.73 39574.10 38854.85 37572.26 35707.87 
 33445.76 31011.95 28443.83 26246.55 24049.26 21857.98 20167.69 18613.16 17119.93 15722.63 
 14409.19 13226.57 12193.39 11285.87 10423.66 9596.45  8814.10  8095.57  7385.66  6692.85  
 6021.59  5362.90  4853.55  4500.86  4346.77  4267.82  4200.16  4138.16  4080.04  4011.82  
 3969.64  3927.05  3871.86  3813.42  3751.10  3663.09  3574.68  3486.73  3403.31  3330.34  
 3260.20  3191.61  3118.58  3042.98  2970.69  2888.29  2799.09  2712.25  2620.70  2529.25  
 2446.73  2361.05  2277.27  2190.62  2082.09  1983.85  1893.96  1805.44  1715.61  1624.68  
 1535.43  1445.85  1360.84  1262.02  1155.58  1063.52  974.47   883.43   796.69   711.61   
 631.89   560.88   477.15   390.83   308.90   249.91   190.88   128.23   86.84    58.29    
 28.35    2.27     0.94     0.87     0.88     0.91     0.93     0.96     0.99     1.06     
 1.14     1.24     1.34     1.47     1.60     1.75     1.93     2.12     2.33     2.56     
 2.80     3.07     3.35     3.65     3.98     4.33     4.68     5.07     5.46     5.86     
 6.29     6.76     7.25     7.75     8.25     8.78     9.34     9.92     10.51    11.12    
 11.77    12.45    13.15    13.85    14.58    15.33    16.10    16.91    17.72    18.54    
 19.40    20.28    21.16    22.04    22.95    23.88    24.81    25.75    26.72    27.71    
 28.74    29.80    30.89    32.01    33.19    34.43    35.89    37.40    39.05    40.82    
 42.74    44.76    46.81    48.97    51.04    53.09    54.99    56.83    58.58    60.35    
 62.05    63.74    65.43    67.01    68.48    69.81    71.11    72.52    74.07    75.72    
 77.12    
46378.75 44648.33 42928.01 41546.77 40666.81 40186.94 39772.34 39095.63 37906.69 36167.33 
 34028.58 31675.15 29176.40 26776.12 24556.11 22461.16 20715.03 19193.56 17737.99 16306.93 
 14963.71 13764.70 12686.52 11786.61 10888.20 9989.79  9212.26  8483.35  7739.09  7038.67  
 6349.57  5696.50  5079.30  4614.70  4331.22  4214.14  4148.14  4084.57  4016.74  3958.78  
 3898.91  3851.12  3799.01  3746.45  3680.16  3624.25  3551.05  3467.20  3394.59  3321.25  
 3251.34  3186.10  3120.50  3048.45  2973.50  2898.53  2814.67  2725.48  2633.83  2538.92  
 2455.71  2372.81  2282.03  2190.77  2092.23  1979.09  1880.36  1790.24  1702.22  1609.36  
 1518.88  1430.86  1343.49  1251.05  1154.70  1058.32  961.93   872.34   784.81   699.21   
 618.32   547.87   470.15   383.08   302.78   242.26   189.33   127.09   90.92    54.98    
 25.76    2.49     1.05     0.99     0.98     1.01     1.03     1.08     1.12     1.19     
 1.28     1.40     1.51     1.66     1.82     2.00     2.20     2.41     2.64     2.90     
 3.18     3.47     3.79     4.13     4.49     4.87     5.27     5.69     6.13     6.60     
 7.07     7.57     8.08     8.63     9.21     9.81     10.43    11.12    11.82    12.57    
 13.33    14.11    14.92    15.75    16.60    17.47    18.33    19.18    20.04    20.94    
 21.82    22.70    23.58    24.48    25.40    26.32    27.23    28.21    29.24    30.33    
 31.46    32.59    33.74    34.96    36.21    37.51    38.90    40.42    42.06    43.76    
 45.55    47.40    49.26    51.13    52.97    54.80    56.57    58.22    59.83    61.42    
 62.94    64.46    65.87    67.16    68.40    69.53    70.64    71.77    73.00    74.28    
 77.12    
46378.75 44868.27 43358.28 41896.02 40808.53 40098.79 39684.54 39287.28 38674.73 37625.67 
 36111.95 34296.73 32313.25 30088.41 27784.72 25811.17 23837.63 21868.32 20239.25 18797.89 
 17425.18 16108.15 14840.03 13694.17 12654.44 11706.59 10863.17 10104.03 9380.15  8667.09  
 7958.09  7263.48  6600.29  5958.01  5328.25  4783.69  4423.16  4155.34  3994.96  3902.65  
 3827.58  3758.65  3686.85  3626.56  3595.82  3561.72  3512.58  3441.89  3372.08  3309.91  
 3251.53  3176.69  3094.21  3007.58  2920.73  2835.10  2752.28  2669.83  2587.38  2504.91  
 2420.87  2337.06  2250.73  2165.13  2080.15  1990.61  1895.27  1800.82  1697.13  1598.95  
 1504.35  1410.75  1317.51  1226.23  1137.16  1049.45  953.42   854.52   769.38   686.87   
 605.87   527.61   456.73   387.64   310.62   245.74   181.01   132.71   86.35    57.27    
 28.80    4.57     1.44     1.30     1.31     1.37     1.42     1.47     1.52     1.60     
 1.70     1.82     1.97     2.12     2.30     2.50     2.73     3.00     3.29     3.61     
 3.95     4.33     4.73     5.16     5.60     6.10     6.60     7.12     7.65     8.22     
 8.81     9.42     10.04    10.69    11.38    12.07    12.81    13.55    14.30    15.07    
 15.87    16.65    17.42    18.19    18.96    19.72    20.48    21.28    22.06    22.87    
 23.74    24.61    25.52    26.47    27.44    28.46    29.51    30.59    31.71    32.88    
 34.10    35.36    36.70    38.07    39.51    40.98    42.48    44.01    45.56    47.13    
 48.70    50.26    51.82    53.38    54.92    56.49    58.02    59.48    60.89    62.28    
 63.60    64.81    65.95    66.96    67.89    68.65    69.44    70.23    71.09    72.03    
 77.12    
46378.75 45144.09 43860.67 42592.74 41507.52 40680.03 40093.76 39696.03 39331.79 38868.76 
 38147.15 37161.56 35892.10 34414.00 32723.91 30861.49 28935.53 27023.68 25203.07 23446.74 
 21758.37 20221.25 18836.15 17583.24 16351.26 15214.67 14138.38 13164.44 12244.05 11464.13 
 10685.58 9907.02  9216.98  8548.23  7886.08  7226.41  6554.69  5909.43  5289.80  4739.73  
 4339.32  4094.98  3949.34  3806.60  3700.06  3624.79  3552.19  3496.11  3443.78  3389.46  
 3329.26  3267.65  3189.56  3099.26  3013.26  2938.56  2863.56  2780.91  2694.98  2613.86  
 2530.35  2446.26  2360.32  2272.36  2172.73  2066.57  1958.73  1857.32  1751.94  1651.75  
 1543.16  1431.68  1328.52  1223.12  1129.57  1036.14  944.28   852.18   764.45   668.88   
 579.69   502.20   424.63   352.76   289.86   221.86   158.09   121.33   84.82    48.31    
 22.93    2.97     1.66     1.64     1.69     1.77     1.78     1.86     1.98     2.16     
 2.35     2.54     2.74     2.97     3.23     3.53     3.85     4.19     4.55     4.95     
 5.37     5.80     6.26     6.75     7.24     7.76     8.31     8.90     9.51     10.13    
 10.76    11.40    12.09    12.80    13.54    14.23    14.97    15.76    16.55    17.35    
 18.16    18.98    19.83    20.70    21.60    22.51    23.47    24.43    25.42    26.42    
 27.46    28.53    29.62    30.75    31.93    33.14    34.41    35.69    37.03    38.40    
 39.76    41.11    42.45    43.79    45.10    46.36    47.62    48.88    50.14    51.38    
 52.62    53.89    55.15    56.45    57.70    58.96    60.19    61.35    62.52    63.66    
 64.74    65.76    66.68    67.47    68.18    68.78    69.30    69.83    70.44    71.05    
 77.12    
46378.75 45487.82 44608.26 43688.80 42734.08 41805.09 41043.52 40413.47 39884.56 39461.66 
 39102.04 38741.97 38341.49 37860.30 37231.56 36482.43 35573.38 34501.25 33329.00 32041.11 
 30677.57 29222.91 27752.13 26253.59 24746.95 23240.71 21769.71 20422.64 19128.06 17838.53 
 16601.88 15436.78 14381.44 13430.72 12555.91 11732.40 10946.70 10210.14 9531.88  8874.45  
 8218.88  7584.13  6977.85  6384.14  5804.02  5220.23  4667.92  4208.63  3896.44  3698.36  
 3567.48  3466.75  3376.41  3285.74  3177.15  3065.98  2976.48  2889.10  2812.16  2737.05  
 2647.70  2558.39  2472.54  2378.16  2276.40  2180.63  2085.32  1984.67  1880.25  1782.73  
 1685.03  1586.98  1491.45  1390.80  1283.87  1174.09  1063.18  944.07   833.17   722.13   
 618.89   526.42   440.97   350.42   284.79   219.15   153.65   102.46   64.14    39.96    
 20.21    2.30     1.73     1.75     1.75     1.70     1.76     1.91     2.07     2.24     
 2.42     2.64     2.89     3.18     3.50     3.83     4.19     4.58     4.98     5.43     
 5.92     6.43     6.97     7.53     8.11     8.73     9.39     10.07    10.78    11.53    
 12.30    13.10    13.91    14.75    15.63    16.55    17.49    18.42    19.40    20.41    
 21.43    22.46    23.53    24.61    25.72    26.84    27.99    29.18    30.35    31.54    
 32.76    33.96    35.17    36.36    37.55    38.73    39.88    41.02    42.12    43.23    
 44.34    45.43    46.51    47.62    48.71    49.81    50.89    51.98    53.05    54.11    
 55.14    56.15    57.16    58.16    59.12    60.09    61.01    61.88    62.75    63.66    
 64.56    65.40    66.13    66.80    67.43    67.99    68.49    68.96    69.47    69.97    
 77.12    
46378.75 45922.10 45437.47 44932.72 44399.99 43832.79 43243.95 42639.02 42033.95 41436.82 
 40871.53 40338.31 39849.07 39380.08 38931.12 38510.16 38122.29 37761.39 37396.78 36992.43 
 36559.92 36107.29 35622.71 35078.24 34489.55 33828.94 33116.07 32357.14 31512.49 30599.53 
 29626.36 28597.04 27495.72 26342.12 25152.31 23938.35 22688.41 21434.21 20207.19 18992.91 
 17846.21 16700.17 15613.69 14571.44 13605.06 12651.26 11924.09 10968.81 10011.68 9265.88  
 8572.36  7910.72  7325.03  6778.70  6270.97  5762.79  5277.57  4815.90  4397.14  4019.84  
 3690.44  3415.37  3189.43  2997.37  2816.50  2647.00  2491.29  2341.35  2195.48  2052.47  
 1913.10  1777.80  1634.05  1489.44  1339.19  1212.63  1084.74  956.85   825.67   706.17   
 595.88   493.17   399.08   315.78   240.95   175.73   120.27   83.85    47.60    27.21    
 10.41    1.68     1.47     1.48     1.59     1.73     1.88     2.04     2.22     2.41     
 2.62     2.84     3.10     3.40     3.74     4.12     4.53     4.95     5.40     5.89     
 6.38     6.94     7.55     8.19     8.87     9.56     10.28    11.05    11.86    12.68    
 13.51    14.34    15.22    16.13    17.07    17.98    18.92    19.90    20.90    21.90    
 22.89    23.90    24.91    25.93    26.96    28.01    29.05    30.10    31.16    32.23    
 33.31    34.38    35.47    36.59    37.70    38.78    39.86    40.92    41.99    43.04    
 44.09    45.11    46.14    47.18    48.25    49.24    50.25    51.26    52.27    53.27    
 54.25    55.23    56.21    57.20    58.20    59.23    60.25    61.28    62.35    63.40    
 64.37    65.16    65.94    66.67    67.35    67.98    68.58    69.08    69.58    70.08    
 77.12    
46378.75 46367.20 46327.94 46261.01 46174.21 46064.02 45937.68 45795.51 45633.62 45455.85 
 45254.45 45048.86 44827.58 44598.30 44345.47 44100.21 43832.27 43551.66 43251.36 42931.28 
 42587.52 42227.85 41824.98 41409.89 40967.29 40500.91 40006.88 39486.59 38909.95 38305.25 
 37641.61 36918.65 36136.35 35298.62 34428.98 33527.70 32559.57 31594.63 30624.54 29683.00 
 28687.16 27714.06 26745.16 25776.31 24741.00 23693.19 22645.25 21640.34 20612.42 19556.85 
 18492.15 17443.99 16372.62 15261.88 14150.66 13125.44 12187.24 11379.20 10572.60 9766.00  
 9004.24  8276.68  7575.20  6897.80  6270.99  5687.98  5130.06  4605.31  4121.39  3666.07  
 3243.98  2848.82  2481.93  2162.61  1866.08  1594.77  1350.31  1150.87  951.95   753.04   
 606.40   477.72   370.76   280.54   208.83   149.25   105.79   62.52    35.78    16.33    
 4.10     3.53     3.82     4.11     4.51     4.95     5.43     5.92     6.46     7.07     
 7.69     8.37     9.08     9.84     10.64    11.49    12.38    13.31    14.26    15.25    
 16.28    17.38    18.51    19.65    20.85    22.07    23.33    24.59    25.89    27.24    
 28.58    29.93    31.34    32.76    34.14    35.54    36.97    38.42    39.85    41.26    
 42.64    43.98    45.32    46.62    47.94    49.23    50.46    51.66    52.83    53.98    
 55.11    56.19    57.21    58.20    59.18    60.12    61.01    61.86    62.68    63.49    
 64.27    65.02    65.74    66.45    67.16    67.82    68.44    69.02    69.59    70.15    
 70.66    71.17    71.64    72.07    72.48    72.84    73.27    73.73    74.09    74.24    
 74.36    74.41    74.41    74.38    74.34    74.27    74.14    73.93    73.68    73.36    
 77.12    
46378.75 46782.34 47114.51 47368.13 47621.55 47854.86 48036.64 48167.01 48257.40 48280.51 
 48216.19 48037.06 47759.58 47470.10 47156.45 46775.60 46346.29 45773.99 45027.74 44153.50 
 43158.76 42148.37 41150.53 40243.58 39395.77 38571.72 37767.16 36947.23 36162.36 35349.76 
 34511.82 33651.86 32784.01 31911.82 30988.45 30057.26 29130.15 28218.88 27323.25 26420.44 
 25588.61 24790.03 23991.44 23192.87 22396.63 21596.19 20817.00 20006.60 19179.99 18323.15 
 17468.05 16586.08 15724.43 14866.51 14035.74 13253.51 12509.97 11772.33 11070.72 10391.27 
 9740.17  9097.94  8467.30  7841.95  7229.63  6647.36  6093.03  5543.93  4999.30  4467.05  
 3937.46  3439.40  2991.88  2586.59  2181.97  1845.15  1567.00  1298.34  1069.20  851.20   
 656.79   507.71   383.93   297.94   211.96   126.33   76.96    44.47    23.23    7.72     
 3.19     2.96     2.87     3.10     3.36     3.64     3.94     4.27     4.62     5.01     
 5.40     5.81     6.30     6.80     7.34     7.88     8.46     9.09     9.76     10.46    
 11.21    12.00    12.86    13.74    14.70    15.69    16.74    17.80    18.89    20.04    
 21.26    22.52    23.88    25.22    26.58    28.00    29.49    30.98    32.49    34.01    
 35.56    37.10    38.64    40.18    41.75    43.27    44.83    46.36    47.83    49.30    
 50.76    52.16    53.53    54.86    56.14    57.41    58.60    59.80    60.94    62.06    
 63.16    64.22    65.23    66.23    67.22    68.15    69.08    69.90    70.71    71.46    
 72.18    72.88    73.50    74.07    74.60    75.09    75.53    76.04    76.39    76.65    
 76.83    76.97    77.02    77.01    76.94    76.83    76.65    76.37    76.01    75.55    
 77.12    
46378.75 47121.25 47705.42 48268.29 48697.61 48960.09 48904.66 48786.52 48526.71 47854.04 
 46655.55 45266.85 44099.41 43020.70 42013.49 40991.35 40030.50 39102.89 38238.30 37401.90 
 36585.41 35761.32 34921.47 34112.79 33277.02 32405.67 31502.57 30574.21 29658.73 28727.76 
 27816.17 26916.56 26036.68 25184.44 24379.54 23586.93 22814.05 22064.91 21349.34 20663.46 
 20028.84 19426.17 18874.78 18351.41 17855.79 17368.33 16908.39 16436.99 15938.02 15368.16 
 14748.27 14145.76 13535.64 12909.77 12291.54 11896.66 11174.44 10448.45 9805.25  9173.28  
 8572.43  8021.91  7550.53  7098.00  6655.22  6211.36  5752.80  5277.39  4816.49  4375.22  
 3946.88  3520.67  3120.21  2726.08  2349.08  1937.37  1576.44  1299.09  1082.91  867.42   
 651.94   452.78   325.44   205.56   133.58   88.54    43.83    21.98    6.01     3.18     
 2.86     2.67     2.63     2.71     2.88     3.07     3.28     3.49     3.69     3.91     
 4.14     4.37     4.62     4.87     5.14     5.42     5.71     6.02     6.33     6.66     
 7.04     7.43     7.85     8.29     8.76     9.25     9.81     10.39    11.05    11.76    
 12.52    13.34    14.18    15.12    16.10    17.13    18.24    19.44    20.72    22.03    
 23.40    24.80    26.24    27.75    29.30    30.94    32.58    34.25    35.95    37.67    
 39.47    41.28    43.09    44.89    46.67    48.49    50.32    52.06    53.77    55.42    
 57.10    58.73    60.27    61.76    63.26    64.68    66.00    67.26    68.50    69.65    
 70.73    71.77    72.76    73.71    74.59    75.38    76.23    76.99    77.60    78.08    
 78.47    78.80    79.03    79.14    79.16    79.06    78.82    78.42    77.91    77.29    
 77.12    
46378.75 47435.66 48266.58 48980.01 49350.08 49276.39 48981.06 47789.08 46025.08 44593.37 
 43328.34 42162.95 41109.12 40173.96 39270.13 38338.38 37373.97 36289.65 35038.93 33704.69 
 32311.32 30895.15 29594.70 28441.11 27379.26 26428.86 25587.48 25020.27 24667.34 24452.82 
 24281.32 24109.81 23938.07 23734.74 23488.25 23250.10 23003.61 22671.53 22209.23 21589.44 
 20973.40 20372.41 19746.64 19028.73 18202.81 17339.55 16464.51 15614.23 14806.31 14082.42 
 13406.89 12771.59 12164.01 11650.43 11124.50 10581.57 10016.13 9439.85  8858.93  8297.35  
 7749.66  7191.66  6641.96  6083.18  5535.63  5007.97  4500.98  3974.44  3408.03  3002.55  
 2597.07  2192.73  1911.91  1646.90  1400.38  1178.45  903.07   733.40   594.37   471.51   
 338.78   255.49   172.42   113.73   75.73    47.52    27.02    10.63    3.28     3.02     
 2.91     2.84     2.72     2.68     2.70     2.81     2.99     3.16     3.35     3.54     
 3.73     3.92     4.12     4.33     4.54     4.75     4.95     5.15     5.37     5.56     
 5.77     5.98     6.18     6.40     6.61     6.83     7.07     7.32     7.59     7.88     
 8.21     8.57     8.97     9.39     9.86     10.36    10.92    11.55    12.22    12.96    
 13.76    14.67    15.70    16.79    17.94    19.18    20.55    21.99    23.47    25.07    
 26.76    28.48    30.24    32.04    33.91    35.83    37.76    39.77    41.79    43.89    
 46.03    48.20    50.31    52.53    54.71    56.83    58.95    60.95    62.92    64.78    
 66.55    68.20    69.75    71.21    72.51    73.72    74.81    75.82    76.72    77.69    
 78.43    78.98    79.41    79.69    79.81    79.77    79.56    79.15    78.56    77.80    
 77.12    
46378.75 47619.32 48652.10 49312.56 49335.04 48969.87 47232.48 45359.84 43859.20 42512.53 
 41368.22 40411.15 39385.37 38311.56 36997.08 35428.02 33730.95 32031.94 30494.05 29150.77 
 28041.84 27132.33 26543.76 26222.48 25990.75 25728.47 25450.11 25133.06 24814.75 24468.93 
 24091.31 23618.95 22881.97 22023.87 21136.87 20229.88 19310.87 18403.54 17526.28 16631.25 
 15802.78 15089.13 14494.84 13937.36 13321.30 12661.29 12099.16 11629.51 11160.87 10692.22 
 10192.51 9681.18  9163.73  8621.50  8076.97  7540.00  7032.22  6530.77  6027.78  5535.16  
 5064.99  4580.02  4025.06  3547.30  3180.90  2857.30  2554.93  2274.74  2032.30  1806.64  
 1607.89  1411.83  1160.57  1001.14  842.88   718.69   600.58   473.36   370.63   294.98   
 216.62   150.61   112.20   74.08    48.93    30.28    14.61    3.95     3.31     3.05     
 2.96     2.88     2.79     2.77     2.76     2.86     3.01     3.18     3.35     3.53     
 3.71     3.90     4.09     4.28     4.47     4.68     4.88     5.08     5.28     5.47     
 5.68     5.88     6.08     6.27     6.47     6.66     6.85     7.04     7.23     7.42     
 7.60     7.81     8.02     8.25     8.51     8.78     9.10     9.45     9.83     10.27    
 10.73    11.24    11.78    12.41    13.13    13.92    14.81    15.76    16.82    17.93    
 19.22    20.68    22.24    23.91    25.67    27.47    29.36    31.33    33.45    35.60    
 37.74    39.90    42.09    44.43    46.83    49.22    51.64    54.11    56.59    59.03    
 61.42    63.68    65.82    67.83    69.70    71.41    72.95    74.32    75.51    76.58    
 77.49    78.43    79.01    79.38    79.58    79.60    79.42    79.02    78.42    77.64    
 77.12    
46378.75 47845.77 48979.42 49677.83 49654.10 48787.65 46525.76 44769.95 43253.95 41970.10 
 40912.52 39822.31 38625.75 37065.06 35190.25 33265.46 31517.98 30058.08 28798.28 27719.54 
 27133.04 26837.49 26644.56 26368.08 26075.37 25742.39 25345.49 24902.51 24201.56 23497.12 
 22441.14 21383.29 20407.07 19512.06 18596.75 17662.67 16745.14 15833.83 14897.61 13923.57 
 13076.51 12548.04 12174.07 11849.35 11535.29 11195.22 10825.34 10407.30 9959.50  9470.14  
 8968.81  8476.44  7996.54  7516.80  7046.27  6580.17  6113.56  5634.35  5092.53  4482.15  
 3991.65  3628.97  3297.69  2969.29  2686.96  2404.97  2167.78  1952.08  1759.09  1544.96  
 1284.15  1123.57  984.28   856.67   732.46   610.02   471.90   387.21   316.30   245.39   
 174.69   129.04   94.76    66.37    44.10    26.59    11.51    3.59     3.40     3.12     
 2.91     2.85     2.77     2.76     2.77     2.83     2.97     3.13     3.31     3.48     
 3.65     3.83     4.02     4.21     4.41     4.60     4.79     4.99     5.20     5.40     
 5.59     5.79     6.00     6.20     6.40     6.60     6.80     6.98     7.16     7.34     
 7.53     7.71     7.88     8.06     8.24     8.43     8.63     8.86     9.12     9.40     
 9.71     10.07    10.47    10.93    11.46    12.01    12.65    13.37    14.12    14.98    
 15.96    17.07    18.25    19.57    21.02    22.63    24.44    26.33    28.32    30.43    
 32.65    34.97    37.31    39.73    42.22    44.73    47.35    49.98    52.70    55.43    
 58.15    60.86    63.46    65.98    68.31    70.50    72.46    74.28    75.83    77.19    
 78.30    79.19    80.00    80.54    80.72    80.68    80.50    80.08    79.43    78.52    
 77.12    
46378.75 47858.05 49021.58 49623.58 49538.62 48265.94 46013.93 44275.20 42776.18 41564.65 
 40483.05 39319.86 37934.17 36154.24 34144.42 32211.36 30647.72 29296.90 28015.91 27344.39 
 27024.23 26846.58 26579.60 26275.96 25912.57 25485.20 24974.01 24340.92 23479.72 22398.32 
 21341.86 20392.46 19468.07 18559.78 17620.03 16648.27 15569.29 14501.04 13585.87 12914.68 
 12495.49 12162.42 12087.31 11672.65 11253.93 10880.31 10465.50 10028.95 9558.46  9074.78  
 8601.48  8115.79  7620.32  7130.75  6642.46  6158.18  5652.30  5078.80  4467.23  3990.88  
 3643.22  3311.03  2989.30  2690.53  2428.90  2204.20  1991.55  1798.29  1582.39  1324.51  
 1176.85  1030.37  883.89   758.26   638.82   504.00   414.29   338.30   261.03   204.04   
 154.32   121.90   89.67    57.44    37.79    21.88    7.83     3.71     3.36     2.91     
 2.60     2.52     2.49     2.61     2.73     2.87     3.03     3.20     3.37     3.54     
 3.72     3.91     4.10     4.29     4.48     4.69     4.89     5.08     5.28     5.48     
 5.68     5.88     6.08     6.29     6.49     6.68     6.88     7.07     7.26     7.45     
 7.63     7.81     7.99     8.16     8.33     8.51     8.70     8.91     9.14     9.41     
 9.70     10.02    10.39    10.81    11.29    11.81    12.40    13.08    13.81    14.64    
 15.59    16.65    17.80    19.06    20.47    22.01    23.76    25.69    27.74    29.79    
 31.91    34.20    36.63    39.07    41.55    44.07    46.65    49.27    51.95    54.67    
 57.36    60.08    62.75    65.35    67.78    70.00    72.05    73.88    75.44    76.78    
 77.94    78.88    79.62    80.14    80.47    80.61    80.49    80.09    79.48    78.64    
 77.12    
