IESNA:LM-63-2002
[TEST] 1
[TESTLAB] AOK
[TESTDATE] 2022-05-17
[ISSUEDATE] 2022-05-17 11:29:42
[NEARFIELD] 
[LAMPPOSITION] 0,0
[OTHER] EVERFINE GO-2000A_V1 SYSTEM
[MANUFAC] AOK
[LUMCAT] A
[LUMINAIRE] AOK-800WiSF-HV-S5-00-5070-3585D-P
[LAMPCAT] B
[LAMP] 5050
[BALLAST] E
[BALLASTCAT] F
[OTHER] 
[OTHER] Gamma(deg)    Fz(lm)      Ft(lm)     %Lum    %Lamp
[OTHER]   0- 10      8551.13     8551.13     7.57     7.57
[OTHER]  10- 20     19459.06    28010.19    24.80    24.80
[OTHER]  20- 30     22292.25    50302.44    44.53    44.53
[OTHER]  30- 40     21214.96    71517.40    63.31    63.31
[OTHER]  40- 50     17206.88    88724.28    78.55    78.55
[OTHER]  50- 60     12181.46   100905.74    89.33    89.33
[OTHER]  60- 70      6930.04   107835.79    95.46    95.46
[OTHER]  70- 80      3088.61   110924.40    98.20    98.20
[OTHER]  80- 90      1080.52   112004.91    99.16    99.16
[OTHER]  90-100       380.08   112384.99    99.49    99.49
[OTHER] 100-110       166.80   112551.79    99.64    99.64
[OTHER] 110-120       113.44   112665.23    99.74    99.74
[OTHER] 120-130        87.50   112752.73    99.82    99.82
[OTHER] 130-140        69.35   112822.08    99.88    99.88
[OTHER] 140-150        54.57   112876.65    99.93    99.93
[OTHER] 150-160        41.09   112917.73    99.96    99.96
[OTHER] 160-170        30.06   112947.79    99.99    99.99
[OTHER] 170-180        11.02   112958.81   100.00   100.00
[OTHER] 
TILT=NONE
1 1.1296e+005 1 181 25 1 2 0.150 0.200 0.000
1.000 1 807.059
0.0    1.0    2.0    3.0    4.0    5.0    6.0    7.0    8.0    9.0    
 10.0   11.0   12.0   13.0   14.0   15.0   16.0   17.0   18.0   19.0   
 20.0   21.0   22.0   23.0   24.0   25.0   26.0   27.0   28.0   29.0   
 30.0   31.0   32.0   33.0   34.0   35.0   36.0   37.0   38.0   39.0   
 40.0   41.0   42.0   43.0   44.0   45.0   46.0   47.0   48.0   49.0   
 50.0   51.0   52.0   53.0   54.0   55.0   56.0   57.0   58.0   59.0   
 60.0   61.0   62.0   63.0   64.0   65.0   66.0   67.0   68.0   69.0   
 70.0   71.0   72.0   73.0   74.0   75.0   76.0   77.0   78.0   79.0   
 80.0   81.0   82.0   83.0   84.0   85.0   86.0   87.0   88.0   89.0   
 90.0   91.0   92.0   93.0   94.0   95.0   96.0   97.0   98.0   99.0   
 100.0  101.0  102.0  103.0  104.0  105.0  106.0  107.0  108.0  109.0  
 110.0  111.0  112.0  113.0  114.0  115.0  116.0  117.0  118.0  119.0  
 120.0  121.0  122.0  123.0  124.0  125.0  126.0  127.0  128.0  129.0  
 130.0  131.0  132.0  133.0  134.0  135.0  136.0  137.0  138.0  139.0  
 140.0  141.0  142.0  143.0  144.0  145.0  146.0  147.0  148.0  149.0  
 150.0  151.0  152.0  153.0  154.0  155.0  156.0  157.0  158.0  159.0  
 160.0  161.0  162.0  163.0  164.0  165.0  166.0  167.0  168.0  169.0  
 170.0  171.0  172.0  173.0  174.0  175.0  176.0  177.0  178.0  179.0  
 180.0  
0.0    15.0   30.0   45.0   60.0   75.0   90.0   105.0  120.0  135.0  
 150.0  165.0  180.0  195.0  210.0  225.0  240.0  255.0  270.0  285.0  
 300.0  315.0  330.0  345.0  360.0  
93400.26 91119.97 89901.32 84324.01 77259.20 71616.41 62653.56 56275.25 48772.38 41485.34 
 32765.74 28562.40 26124.51 24019.24 22199.16 20568.68 15748.91 13208.48 10551.83 7893.37  
 5234.90  3573.48  1765.37  942.79   131.30   80.05    36.96    26.22    21.34    18.14    
 16.02    14.32    12.85    11.69    10.85    10.16    9.50     8.94     8.38     7.87     
 7.49     7.14     6.87     6.68     6.42     6.29     6.09     5.94     5.77     5.60     
 5.37     5.15     5.08     5.02     4.96     4.81     4.62     4.40     4.26     4.16     
 4.06     4.00     3.97     3.92     3.88     3.86     3.84     3.84     3.80     3.79     
 3.79     3.77     3.77     3.77     3.76     3.76     3.76     3.80     3.85     3.92     
 4.02     4.14     4.27     4.39     4.53     4.70     4.89     5.12     5.38     5.66     
 5.96     6.30     6.66     7.06     7.47     7.90     8.38     8.90     9.47     10.09    
 10.78    11.51    12.29    13.09    13.96    14.89    15.86    16.85    17.87    18.97    
 20.15    21.38    22.61    23.90    25.26    26.62    28.03    29.48    31.05    32.70    
 34.43    36.25    38.23    40.28    42.42    44.57    46.92    49.39    51.89    54.45    
 57.11    59.82    62.62    65.45    68.33    71.20    74.07    77.12    80.23    83.39    
 86.67    90.12    93.77    97.54    101.44   105.53   109.77   114.03   118.45   123.16   
 127.94   132.69   137.23   141.64   146.21   150.40   154.17   157.42   160.25   162.79   
 164.92   166.73   168.17   169.04   169.24   168.83   167.72   166.00   163.62   160.75   
 157.47   153.48   149.41   145.02   140.47   135.27   129.73   123.94   118.27   112.58   
 105.59   
93400.26 90157.59 88844.94 87336.74 77678.35 72331.35 66355.23 58879.19 52028.16 45198.51 
 38965.57 30430.57 26952.43 24673.58 22399.69 20677.93 18966.53 14560.42 12092.66 9510.83  
 7121.24  4909.76  3457.73  2005.70  564.88   414.41   263.95   114.74   98.33    76.87    
 54.85    50.32    41.71    36.72    37.60    31.87    23.66    19.55    16.45    14.59    
 13.48    12.54    11.63    10.83    10.16    9.47     8.80     8.02     7.66     7.40     
 7.10     6.89     6.68     6.44     6.23     6.06     5.88     5.68     5.48     5.31     
 5.22     5.22     5.20     5.12     5.00     4.85     4.68     4.55     4.41     4.30     
 4.19     4.10     4.03     3.98     3.95     3.96     3.96     3.97     3.99     4.04     
 4.10     4.19     4.31     4.46     4.63     4.81     5.02     5.25     5.50     5.80     
 6.12     6.45     6.82     7.23     7.69     8.19     8.70     9.26     9.87     10.56    
 11.28    12.02    12.81    13.64    14.52    15.51    16.52    17.56    18.61    19.74    
 20.92    22.18    23.45    24.71    26.04    27.47    28.98    30.59    32.22    33.91    
 35.72    37.65    39.70    41.79    43.90    46.11    48.39    50.78    53.19    55.63    
 58.14    60.68    63.26    65.85    68.44    71.10    73.92    76.78    79.70    82.80    
 86.14    89.61    93.15    96.92    100.77   104.79   108.90   113.11   117.44   121.92   
 126.51   130.98   135.27   139.66   143.67   147.39   150.75   153.91   156.81   159.39   
 161.55   163.30   164.48   165.05   164.23   163.40   162.08   160.27   158.16   155.73   
 152.90   149.91   146.54   142.86   138.95   134.67   129.95   125.05   119.91   114.95   
 105.59   
93400.26 90427.59 88142.69 86875.04 81616.80 75759.63 69919.84 64278.81 57273.85 51136.17 
 45075.23 38765.74 32083.20 27002.39 24465.47 22439.06 20516.53 18924.40 17250.85 13225.06 
 10963.97 8724.38  6484.79  4830.88  3678.23  2505.32  1771.77  1042.82  313.87   220.10   
 159.76   129.38   107.98   86.69    67.73    60.05    52.13    44.04    39.69    36.84    
 32.79    29.52    26.27    24.04    22.18    20.35    18.55    16.87    15.47    13.92    
 12.43    10.99    9.68     9.33     9.67     9.84     9.58     9.13     8.59     8.10     
 7.62     7.22     6.87     6.55     6.29     6.06     5.85     5.66     5.47     5.29     
 5.14     5.00     4.87     4.73     4.61     4.51     4.42     4.36     4.32     4.31     
 4.34     4.47     4.66     4.87     5.10     5.36     5.64     5.96     6.32     6.70     
 7.13     7.59     8.08     8.65     9.26     9.89     10.59    11.35    12.14    12.97    
 13.86    14.80    15.78    16.76    17.83    18.99    20.16    21.36    22.59    23.85    
 25.22    26.65    28.11    29.61    31.21    32.89    34.59    36.34    38.13    40.02    
 41.92    43.85    45.78    47.80    49.90    51.96    54.05    56.20    58.47    60.77    
 63.16    65.60    68.12    70.72    73.45    76.39    79.50    82.68    85.93    89.26    
 92.70    96.34    100.09   103.93   107.82   111.83   115.76   119.73   123.79   127.77   
 131.64   135.31   138.81   142.25   145.49   148.37   151.06   153.51   155.67   157.60   
 159.09   160.07   160.62   160.72   160.35   159.61   158.49   156.99   155.79   153.96   
 151.79   149.27   146.43   143.48   140.23   136.49   132.52   128.37   124.38   120.25   
 105.59   
93400.26 90604.42 88066.47 86582.16 85599.80 81354.23 74511.53 70799.91 66243.25 60656.14 
 55200.30 50107.76 44297.46 40007.44 35369.54 29230.49 26657.84 24085.18 21519.40 19643.23 
 17943.30 16342.27 14870.29 11599.80 9764.13  7937.10  5984.90  5062.82  3762.16  2870.99  
 1979.04  985.54   603.02   419.77   307.63   247.04   186.76   161.72   136.86   117.45   
 98.44    85.28    74.33    64.72    56.17    49.69    43.94    38.42    34.97    32.03    
 28.98    24.74    20.65    17.41    15.48    14.19    14.01    13.45    12.86    12.03    
 11.27    10.57    9.92     9.33     8.87     8.50     8.13     7.74     7.42     7.12     
 6.85     6.56     6.27     5.99     5.71     5.44     5.21     5.04     4.91     4.87     
 4.91     5.07     5.33     5.64     5.98     6.36     6.78     7.25     7.74     8.27     
 8.83     9.42     10.04    10.73    11.47    12.24    13.03    13.88    14.83    15.83    
 16.86    17.92    19.01    20.19    21.39    22.65    23.98    25.35    26.72    28.18    
 29.70    31.29    32.92    34.54    36.23    37.99    39.86    41.78    43.68    45.59    
 47.61    49.75    51.96    54.21    56.47    58.83    61.31    63.88    66.52    69.22    
 72.04    74.86    77.84    80.85    83.87    86.99    90.17    93.43    96.60    99.88    
 103.29   106.63   109.98   113.29   116.56   119.86   123.02   126.15   129.13   132.05   
 134.96   137.73   140.34   142.89   145.28   147.56   149.54   151.14   152.49   153.52   
 154.35   154.94   155.31   155.37   155.16   154.76   154.13   153.27   152.21   150.97   
 149.41   147.69   146.26   143.71   140.84   138.01   134.94   131.79   128.80   125.61   
 105.59   
93400.26 91327.45 88922.87 87420.48 86304.83 84552.29 83296.68 79040.30 73970.32 70917.36 
 67003.23 63420.56 59701.92 55068.53 51898.31 48646.60 44014.32 40325.15 37144.81 33345.83 
 29783.78 25832.48 23103.86 21115.79 19341.82 17624.52 16090.53 14601.39 13093.14 11801.90 
 10088.34 8369.57  6956.97  5639.32  4520.41  3793.30  3082.30  2457.74  1897.50  1394.59  
 1092.01  791.95   491.89   374.17   297.23   232.78   185.98   150.19   125.46   107.19   
 88.97    77.07    65.58    57.50    49.24    42.77    38.68    34.96    30.44    27.72    
 24.29    20.81    17.45    16.44    15.64    14.58    13.47    12.49    11.51    10.73    
 10.23    9.58     9.07     8.67     8.24     7.79     7.31     6.85     6.49     6.24     
 6.13     6.26     6.60     7.00     7.42     7.88     8.36     8.89     9.49     10.13    
 10.80    11.53    12.34    13.19    14.07    15.00    15.97    17.06    18.18    19.35    
 20.62    21.92    23.30    24.70    26.20    27.79    29.41    31.08    32.75    34.54    
 36.43    38.33    40.28    42.30    44.46    46.63    48.83    51.06    53.42    55.86    
 58.33    60.84    63.40    66.07    68.78    71.48    74.23    77.13    80.02    82.95    
 85.90    88.82    91.72    94.67    97.63    100.59   103.51   106.43   109.33   112.23   
 115.12   118.00   120.81   123.57   126.19   128.83   131.43   133.89   136.07   137.98   
 139.82   141.49   143.11   144.35   145.67   146.90   147.96   148.84   149.65   150.43   
 151.11   151.72   152.27   152.63   152.82   152.88   152.63   152.09   151.47   150.67   
 149.85   148.47   146.97   145.42   143.56   141.58   139.69   137.58   135.31   132.90   
 105.59   
93400.26 92429.12 90427.33 89023.27 87841.87 86329.10 85157.21 83443.14 82345.75 80640.63 
 79374.62 77943.32 76307.45 73973.45 71079.82 68300.78 65291.51 63035.89 60664.47 58377.80 
 55673.02 53149.40 50855.88 48113.11 45682.41 42860.76 40303.00 38076.06 35440.33 33177.22 
 30442.04 28079.86 26013.08 23840.98 21671.49 19815.40 17932.34 16083.13 14527.66 13076.77 
 11755.81 10652.99 9478.59  8434.55  7386.13  6431.70  5570.86  4756.59  3941.36  3282.77  
 2624.17  1968.15  1575.93  1271.63  1041.28  852.71   692.34   558.65   436.56   334.79   
 275.48   216.18   157.13   124.80   99.34    79.83    64.88    52.65    41.93    36.09    
 30.40    25.16    20.37    19.22    17.42    15.52    13.76    12.43    11.10    9.38     
 7.42     6.19     6.22     6.55     6.92     7.34     7.81     8.30     8.83     9.40     
 10.01    10.66    11.38    12.16    13.00    13.88    14.83    15.81    16.90    18.04    
 19.25    20.48    21.81    23.24    24.76    26.30    27.93    29.62    31.42    33.23    
 35.16    37.17    39.24    41.34    43.50    45.76    48.13    50.56    52.99    55.43    
 58.00    60.66    63.47    66.29    69.07    71.89    74.82    77.79    80.73    83.78    
 86.72    89.73    92.72    95.68    98.50    101.31   104.27   107.06   109.74   112.15   
 113.83   116.05   118.56   121.01   123.38   125.77   128.00   130.13   132.15   134.05   
 135.91   137.68   139.32   140.95   142.45   143.90   145.27   146.51   147.70   148.80   
 149.84   150.90   151.92   152.82   153.52   154.02   154.25   154.28   154.18   153.96   
 153.61   153.05   152.39   151.65   150.68   149.35   147.98   146.53   144.77   142.97   
 105.59   
93400.26 93466.00 92592.72 92057.93 91549.69 90609.72 89795.17 88531.66 87886.09 86512.91 
 85427.05 84761.02 83545.30 82636.07 81392.59 80141.65 78935.11 78098.26 76629.30 75141.10 
 73711.86 72589.28 71100.77 69635.67 67780.75 66279.91 64444.29 62879.04 60986.33 58974.26 
 56953.07 55056.08 52990.90 50841.39 48988.72 46980.02 44552.70 42395.35 40531.46 38927.15 
 37094.20 35095.98 33117.85 31296.72 29632.57 27759.65 26084.85 24410.05 22735.33 21068.79 
 19523.76 18060.65 16767.27 15390.78 14146.37 12918.79 11792.05 10734.48 9765.38  8843.26  
 8041.16  7229.04  6455.30  5754.72  5137.10  4589.64  4040.21  3532.92  3079.31  2697.65  
 2316.68  1993.91  1692.12  1420.87  1177.26  961.61   773.25   615.35   476.46   352.09   
 256.63   161.54   99.74    48.19    11.69    5.83     4.68     4.44     4.31     4.19     
 3.99     3.47     3.15     3.19     3.25     3.33     3.44     3.57     3.73     3.91     
 4.11     4.32     4.55     4.79     5.03     5.29     5.57     5.84     6.15     6.49     
 6.84     7.21     7.61     8.03     8.52     9.02     9.52     10.03    10.58    11.18    
 11.80    12.46    13.14    13.83    14.54    15.30    16.09    16.90    17.73    18.59    
 19.50    20.44    21.41    22.41    23.44    24.51    25.63    26.79    27.99    29.23    
 30.52    31.88    33.30    34.82    36.42    38.11    39.82    41.54    43.26    45.06    
 46.93    48.89    50.93    53.09    55.33    57.69    60.26    63.07    65.93    68.90    
 72.06    75.45    78.97    82.63    86.25    90.02    93.60    96.98    100.34   103.84   
 107.18   110.49   113.63   116.58   119.30   121.70   123.94   126.19   128.10   129.95   
 105.59   
93400.26 94124.28 93902.27 94556.00 95096.70 95555.26 95691.37 95932.03 96161.76 96463.22 
 96401.99 96748.90 96863.67 97060.38 97269.75 96931.53 96609.99 96136.17 95529.17 94729.35 
 93835.91 92965.60 91652.19 90167.17 88564.87 86849.70 84901.79 82853.73 80320.75 77902.61 
 75210.30 72479.46 69975.86 67518.22 65088.93 62907.58 60528.47 57939.89 55747.51 53759.54 
 51765.62 49675.86 47692.94 45663.12 43584.94 41690.08 39660.96 37738.60 35909.04 34128.18 
 32272.76 30563.32 28919.17 27279.62 25731.92 24252.94 22810.51 21500.21 20203.01 18877.92 
 17604.59 16426.84 15258.54 14218.01 13174.73 12119.43 11189.47 10260.64 9452.28  8629.54  
 7888.11  7168.41  6502.15  5889.48  5378.04  4877.28  4417.08  3971.43  3573.67  3226.53  
 2913.04  2628.18  2366.64  2126.61  1897.41  1703.90  1522.48  1374.34  1236.22  1104.05  
 971.94   854.51   751.52   662.07   581.46   512.45   452.30   403.74   360.13   321.83   
 288.41   260.01   235.88   214.45   194.78   176.79   160.81   146.77   134.14   123.63   
 113.14   105.03   96.70    86.73    75.07    62.21    48.84    37.58    31.38    21.08    
 10.47    8.09     8.20     8.68     9.23     9.83     10.45    11.09    11.78    12.53    
 13.28    14.01    14.89    15.78    16.71    17.68    18.80    20.21    20.78    21.28    
 22.18    23.13    24.00    24.87    25.80    26.60    27.34    28.47    30.11    31.67    
 33.10    34.51    35.28    36.57    38.30    40.06    42.04    44.18    46.43    48.92    
 51.60    54.57    57.71    61.23    64.98    69.26    73.16    76.46    80.24    84.15    
 88.13    92.10    95.88    99.52    103.17   106.65   110.13   113.54   116.78   119.99   
 105.59   
93400.26 94759.26 96231.61 97835.29 99733.85 101580.13 103390.79 104908.57 106304.71 107875.71 
 108974.59 109670.72 109730.19 109323.54 108337.56 106653.59 104047.85 101169.55 98839.38 96618.54 
 94354.12 91940.11 89377.51 87118.22 84822.43 82824.76 80700.09 78642.08 76484.81 74374.41 
 72495.78 70543.57 68542.45 66456.28 64269.79 62046.95 59793.98 57697.59 55666.80 53448.92 
 51276.08 49194.46 47287.92 45454.56 43731.73 41879.20 40226.27 38554.52 36982.78 35422.24 
 33799.30 32297.11 30874.83 29460.26 28034.35 26657.22 25353.85 24050.48 22746.84 21420.49 
 20137.82 19052.73 17972.37 16947.08 15956.94 14898.32 13908.74 12891.31 11886.98 11001.42 
 10088.25 9204.31  8360.51  7521.92  6680.56  5940.14  5303.31  4722.07  4183.23  3668.20  
 3254.43  2946.32  2638.20  2330.91  2092.05  1885.59  1709.79  1564.72  1435.92  1296.71  
 1160.13  1031.98  917.20   823.48   740.80   671.00   609.42   557.23   511.02   470.55   
 435.55   406.48   381.33   359.40   339.98   323.28   308.13   294.26   282.64   272.49   
 263.01   254.33   245.94   237.55   229.18   222.11   215.56   209.35   203.36   196.94   
 190.48   184.14   177.72   171.26   163.49   154.57   145.16   135.68   126.03   115.34   
 103.71   91.47    76.51    52.46    35.16    27.55    23.26    20.00    13.52    10.64    
 11.26    12.06    12.90    13.78    14.67    15.63    16.61    17.64    18.69    19.79    
 21.02    22.30    23.50    25.05    29.15    35.73    29.14    30.00    31.69    33.65    
 35.90    38.43    41.46    44.79    48.29    51.83    55.18    59.02    62.99    67.18    
 71.39    75.76    80.08    84.40    88.80    93.16    97.58    101.98   106.51   111.00   
 105.59   
93400.26 95794.85 98538.81 101105.45 104319.20 107269.54 110158.04 112814.24 114469.21 114975.71 
 114704.21 112238.48 109153.93 106684.49 103983.98 101433.71 98963.42 96770.53 94684.27 92527.08 
 90177.38 87905.86 85263.18 82485.29 79570.26 76706.14 74058.57 71527.66 69202.38 67070.88 
 65248.91 63573.72 62311.60 61081.17 60102.95 59030.86 57873.94 56788.40 55534.71 53984.81 
 52396.01 50599.10 48992.02 47466.68 46022.02 44390.10 42412.57 40464.18 38764.18 36958.04 
 35211.90 33553.32 31951.52 30342.27 28800.90 27276.14 25851.49 24487.69 23080.40 21600.71 
 20232.54 18900.88 17625.77 16331.24 15028.53 13873.63 12728.07 11530.34 10332.16 9133.98  
 8225.59  7464.35  6709.13  6028.41  5417.27  4793.84  4233.89  3771.39  3360.83  3003.42  
 2680.12  2404.56  2145.20  1911.36  1720.39  1555.36  1412.85  1285.96  1183.13  1080.51  
 977.90   878.08   790.33   714.87   649.86   594.48   547.25   508.38   474.75   445.83   
 420.83   400.06   381.47   365.51   350.49   337.27   325.71   315.14   305.57   296.11   
 287.65   280.02   273.67   267.07   260.69   254.78   249.23   244.01   238.51   232.87   
 227.94   222.66   216.46   209.81   203.21   196.91   190.53   184.41   178.26   172.23   
 166.33   160.26   154.14   147.63   141.90   136.39   130.63   122.96   115.28   105.25   
 94.56    85.50    75.09    49.35    24.09    19.38    16.31    14.17    12.59    12.61    
 13.60    14.66    15.77    17.00    18.24    19.52    20.90    22.41    24.22    26.39    
 29.06    36.67    38.72    35.00    37.59    40.62    43.94    47.52    51.30    55.30    
 59.52    63.91    68.40    72.76    77.30    81.98    87.03    92.35    97.63    103.16   
 105.59   
93400.26 96474.47 100378.69 104241.58 107985.33 111770.25 114995.77 116864.90 117731.24 115899.12 
 112647.52 110047.46 107478.03 104797.55 102530.19 100426.96 98029.96 95424.09 92375.78 88725.66 
 85293.28 81851.83 78685.91 75878.33 73686.60 71927.22 70615.78 69713.70 68678.70 67537.68 
 66211.33 64738.39 63351.42 61778.39 59992.45 57740.28 55575.53 53374.42 51135.85 48770.81 
 46501.52 44236.75 42208.94 40497.71 38866.98 37292.99 35790.88 34288.26 32742.15 31232.45 
 29763.03 28324.87 26835.61 25403.61 23971.60 22539.72 21120.04 19806.39 18525.17 17283.75 
 16089.43 14974.33 13754.61 12418.10 11276.41 10346.95 9512.42  8728.23  7994.01  7346.35  
 6728.93  6171.04  5616.26  4987.64  4534.20  4122.45  3725.63  3352.80  2988.90  2700.85  
 2413.10  2152.96  1913.01  1712.47  1532.50  1376.10  1244.64  1130.70  1037.16  958.06   
 879.76   794.64   716.44   648.26   587.09   537.12   495.27   458.32   426.81   399.85   
 378.74   361.42   347.81   335.36   324.53   315.12   307.00   298.56   291.51   285.10   
 278.70   271.97   265.85   260.07   254.52   248.59   240.73   232.88   226.08   219.66   
 214.22   209.23   204.37   199.84   195.51   191.44   187.30   183.21   179.19   175.14   
 171.29   167.32   163.15   159.01   155.00   150.78   145.98   140.99   134.97   127.84   
 120.37   111.35   102.57   99.46    94.63    87.90    87.08    83.90    74.36    37.88    
 20.05    17.85    17.07    14.32    14.60    16.03    17.52    19.07    20.77    22.61    
 24.52    26.52    28.64    31.22    37.04    46.18    38.37    41.75    45.31    49.24    
 53.23    57.48    61.88    66.26    70.64    75.36    80.51    86.18    92.14    98.45    
 105.59   
93400.26 97449.10 101764.50 106524.26 111211.74 115452.52 118019.28 119038.06 116711.73 113450.78 
 110770.77 108263.20 105988.11 103997.78 101519.62 98710.78 95247.09 91371.47 87444.09 83830.56 
 80832.86 78334.38 76345.99 74875.75 73688.69 72456.09 71123.47 69730.11 68268.89 66596.18 
 64551.44 62200.74 59580.54 57049.54 54579.06 52260.46 49863.43 47390.03 45022.16 42664.55 
 40370.68 38244.51 36474.09 35152.74 34058.37 33041.62 31973.74 30857.62 29745.10 28532.96 
 27204.08 25858.80 24537.25 23196.02 21902.37 20633.03 19439.57 18274.64 17133.84 15861.74 
 14461.06 13226.22 12239.80 11369.71 10500.73 9706.51  8995.71  8326.02  7707.54  7123.82  
 6545.23  5860.82  5343.91  4869.58  4448.89  4057.35  3677.38  3287.83  2947.84  2660.76  
 2397.15  2159.17  1930.29  1730.30  1553.37  1399.65  1265.92  1163.30  1060.97  958.64   
 885.36   803.07   717.10   639.19   571.34   513.09   465.08   425.42   393.35   363.52   
 339.14   319.68   305.70   294.11   284.71   276.54   269.19   262.57   256.43   250.64   
 245.07   239.76   234.89   229.77   224.81   219.99   215.25   210.75   205.84   200.85   
 195.81   191.37   186.56   182.34   178.44   174.97   171.12   167.52   164.33   161.13   
 157.71   154.34   150.61   147.10   143.68   140.40   131.89   127.89   123.92   121.49   
 118.88   115.78   112.61   109.60   106.41   103.70   101.01   96.81    89.94    86.52    
 78.09    66.95    17.85    14.89    14.03    14.46    15.95    17.59    19.49    21.44    
 23.70    26.19    28.74    31.23    34.01    37.57    50.69    41.76    44.85    48.53    
 52.51    56.68    61.08    65.50    69.82    74.57    79.67    85.31    91.15    97.36    
 105.59   
93400.26 97661.94 102087.77 106987.27 111699.28 115964.48 118363.45 118833.75 115948.68 112976.18 
 110367.06 107961.37 106010.18 103899.24 101341.48 98212.53 94394.30 90286.81 86503.70 83307.97 
 80548.72 78223.46 76763.22 75652.47 74570.65 73241.65 71799.44 70172.24 68324.34 66249.81 
 63799.16 61100.42 58478.85 56021.60 53710.40 51329.83 48777.61 46130.04 43469.12 41019.01 
 38955.27 37370.76 36141.68 35139.51 34196.49 33217.59 32222.24 31174.35 30041.97 28805.81 
 27510.25 26217.95 24870.32 23523.26 22232.50 20970.75 19750.64 18548.86 17331.01 16008.08 
 14572.28 13345.35 12440.49 11593.46 10777.88 9994.85  9265.49  8588.27  7970.36  7404.39  
 6842.65  6163.02  5608.77  5120.70  4689.97  4283.38  3891.10  3510.72  3153.32  2873.34  
 2593.36  2313.92  2081.06  1866.79  1670.32  1492.56  1337.89  1207.05  1091.01  993.51   
 911.53   838.90   755.36   670.54   591.96   524.75   468.09   420.72   380.20   347.98   
 320.23   296.90   278.45   266.13   256.05   248.75   242.51   236.26   230.03   225.30   
 220.90   216.68   212.48   208.74   205.00   201.28   197.88   194.49   191.22   187.99   
 184.83   181.22   178.45   175.73   172.99   170.13   167.33   164.59   162.01   159.28   
 156.78   153.97   151.07   148.14   144.96   141.95   138.77   133.93   126.79   124.37   
 121.89   119.98   117.80   114.98   112.18   109.41   106.95   104.46   101.94   99.41    
 96.34    90.00    68.19    19.17    17.32    16.47    16.23    17.70    20.09    22.18    
 24.71    27.43    30.25    33.28    36.44    40.32    51.10    49.17    47.90    51.53    
 55.48    59.66    64.00    68.49    72.73    77.16    82.07    87.52    93.45    99.63    
 105.59   
93400.26 97439.13 101852.86 106218.60 110458.47 114064.00 115941.70 115834.20 112780.21 110070.70 
 107869.72 105657.55 103715.58 101854.24 99523.17 96702.25 93196.98 89426.80 85837.94 82657.87 
 79986.63 77590.19 76022.55 74908.69 73947.49 72815.05 71496.99 70161.54 68607.22 66831.61 
 64760.36 62349.70 59775.39 57328.88 55028.44 52823.27 50560.08 48096.49 45595.05 43188.22 
 40895.80 38811.88 37105.70 35767.13 34686.39 33697.99 32675.09 31679.34 30597.56 29452.37 
 28215.97 26928.60 25679.85 24372.77 23033.82 21780.74 20540.17 19385.89 18181.39 17023.52 
 15811.12 14449.08 13207.41 12182.13 11365.22 10550.26 9735.29  9021.54  8344.02  7731.15  
 7157.74  6633.93  6029.06  5421.93  4938.14  4519.03  4128.30  3736.24  3363.61  3014.59  
 2732.10  2465.65  2208.46  1977.42  1774.49  1589.69  1420.94  1278.92  1170.27  1061.92  
 953.57   880.75   805.91   724.43   646.49   574.76   515.74   467.86   427.26   392.54   
 362.40   338.08   318.25   304.53   292.74   283.67   276.01   269.44   263.74   258.22   
 253.04   248.47   244.15   239.84   235.79   231.95   228.49   225.14   221.52   217.47   
 212.74   208.42   203.85   199.28   195.10   190.96   186.60   182.16   178.07   173.94   
 169.88   166.26   162.08   157.25   151.44   145.28   138.04   130.37   127.96   129.52   
 131.10   130.97   128.61   125.67   122.02   118.69   114.90   109.52   101.69   96.03    
 89.45    65.37    27.90    23.27    20.67    18.48    19.20    21.74    24.39    27.22    
 30.20    33.36    36.64    40.10    43.94    51.32    57.22    52.63    55.66    59.16    
 62.76    66.64    70.83    74.76    78.73    82.99    87.58    92.61    97.77    103.25   
 105.59   
93400.26 96880.77 100472.64 104257.73 107914.88 111603.94 114079.52 115368.00 114795.08 112014.00 
 109685.06 108063.15 106221.60 104602.99 103054.96 101209.31 98900.22 96256.01 92954.85 89101.91 
 85437.67 82174.77 79252.36 76808.93 74684.27 73174.80 71974.79 70921.44 69761.89 68510.93 
 67112.83 65790.97 64288.04 62626.33 60700.38 58497.40 56263.95 54089.92 52000.58 49829.00 
 47620.29 45553.28 43477.92 41516.15 39603.71 37926.58 36379.37 34950.76 33670.73 32438.07 
 31261.09 30175.88 28962.07 27730.74 26364.29 25076.81 23789.33 22501.47 21179.72 19896.23 
 18675.68 17468.42 16284.82 15162.37 14038.98 12834.83 11651.10 10677.41 9864.06  9080.88  
 8380.02  7695.29  7104.55  6550.31  6011.40  5436.57  4823.84  4366.72  3971.21  3607.49  
 3259.01  2897.70  2621.29  2345.26  2100.55  1869.48  1670.03  1489.95  1342.15  1215.20  
 1101.10  1006.10  930.23   853.40   767.82   688.90   617.49   558.00   507.34   464.84   
 429.68   400.20   376.00   357.24   341.40   328.30   316.36   306.06   297.13   289.16   
 281.89   274.93   268.66   262.56   257.01   251.90   246.81   240.66   234.52   228.38   
 222.70   216.90   211.39   206.09   201.12   196.67   192.22   187.87   184.03   179.97   
 175.75   171.87   168.11   164.43   160.43   156.66   152.64   148.37   144.17   139.28   
 134.19   128.54   123.14   117.33   109.75   101.17   94.70    87.81    78.09    38.91    
 26.66    22.48    19.95    18.45    20.77    23.38    26.18    29.17    32.40    35.88    
 39.48    43.14    47.10    51.89    60.94    58.25    60.77    64.10    67.53    70.77    
 74.29    78.15    81.79    85.03    88.41    92.43    96.76    101.22   105.86   110.63   
 105.59   
93400.26 96007.80 98730.38 101706.65 104754.90 107892.36 110864.39 113105.10 114830.19 115599.10 
 114238.49 112035.43 110163.37 107726.60 105464.09 102868.52 100933.08 99268.89 97413.29 95117.13 
 92774.13 89995.69 87050.23 83901.27 80715.62 77906.82 75279.89 72917.50 70826.13 68776.26 
 66998.49 65596.06 64620.40 63699.06 62688.78 61763.27 60721.81 59543.33 58475.61 57398.06 
 56041.00 54545.34 53025.08 51345.39 49761.36 48197.63 46548.55 44719.94 42889.90 41063.73 
 39238.69 37548.39 35995.26 34517.21 33020.43 31558.44 30244.39 29024.88 27716.75 26299.02 
 24931.00 23536.04 22210.82 20886.29 19581.17 18221.86 17048.50 15810.75 14553.00 13396.15 
 12298.44 11200.44 10102.44 9004.43  8130.26  7415.68  6720.30  6077.06  5466.98  4873.72  
 4284.55  3857.38  3455.96  3095.13  2750.15  2480.08  2216.63  1981.19  1776.33  1599.70  
 1448.52  1317.26  1210.20  1107.40  1004.63  899.76   807.34   728.38   661.04   601.60   
 549.45   507.27   471.34   441.48   414.47   390.66   370.25   353.11   337.74   323.99   
 311.96   301.17   290.98   281.99   273.31   265.69   258.67   251.97   245.59   239.68   
 233.91   228.52   222.83   217.31   212.09   207.21   201.87   195.97   189.54   183.12   
 176.75   170.50   163.92   158.05   151.89   145.57   138.94   132.86   125.98   117.61   
 109.22   97.88    85.26    63.68    35.09    26.19    21.87    19.75    19.16    21.03    
 23.27    25.56    28.08    30.76    33.55    36.43    39.51    42.78    46.18    49.82    
 56.14    59.42    59.07    62.25    65.62    69.11    72.73    76.24    79.57    82.91    
 86.12    89.46    92.26    95.38    98.84    102.50   106.21   110.02   113.80   117.77   
 105.59   
93400.26 94995.45 96617.47 98546.89 100857.59 103235.14 105685.81 108393.72 110889.52 113018.07 
 113958.34 113932.06 113656.26 112950.57 111338.72 108957.18 106499.19 104140.95 102001.38 99970.53 
 97789.77 95564.29 93515.63 91291.02 89314.19 87264.85 85323.52 83324.34 81357.14 79462.78 
 77499.99 75532.17 73594.78 71589.04 69378.18 67240.15 65020.93 63163.78 61058.96 59019.77 
 56955.37 55044.81 53257.83 51515.81 49979.56 48419.33 46802.78 45355.90 43806.91 42487.10 
 41178.66 39845.12 38369.14 36977.74 35524.07 34054.51 32555.41 31194.65 29698.19 28225.41 
 26784.11 25379.05 24080.05 22779.93 21393.42 20196.60 19068.42 18055.45 17057.44 16022.04 
 14954.97 13908.33 12956.57 12008.91 11105.01 10148.77 9280.66  8458.31  7711.96  6889.59  
 6139.03  5470.52  4883.52  4364.46  3866.68  3403.80  3058.16  2779.40  2500.63  2222.49  
 2002.13  1810.71  1651.66  1516.86  1378.52  1231.87  1098.32  979.39   877.53   782.94   
 704.59   637.31   576.44   525.26   482.15   444.86   412.01   382.65   357.49   336.17   
 316.59   298.91   283.50   270.57   258.70   247.69   237.37   227.07   218.31   209.93   
 201.89   193.67   185.31   176.70   167.65   158.73   150.54   142.44   134.46   126.20   
 117.05   107.02   95.33    81.29    64.07    48.07    40.57    34.34    22.98    16.68    
 18.07    19.84    21.71    23.71    25.78    28.03    30.34    32.75    35.25    37.86    
 40.78    43.78    47.06    51.75    56.16    55.25    57.35    59.86    62.71    65.54    
 68.38    71.16    73.95    76.78    79.74    82.83    86.17    89.60    92.78    95.76    
 98.79    101.88   105.00   108.16   111.38   114.49   117.70   120.91   124.04   127.09   
 105.59   
93400.26 93914.57 94444.65 95302.25 96407.98 97738.10 99450.73 101069.86 102182.20 102569.74 
 102954.61 103401.82 103896.32 104099.01 103886.24 104063.92 103894.15 103686.34 103143.64 102391.46 
 101563.41 100598.43 99858.06 98710.72 97189.81 95272.31 93371.19 91385.94 89145.79 86922.55 
 84827.89 82606.03 80316.80 78062.02 75975.02 73753.09 71506.66 69100.25 66858.53 64732.53 
 62607.67 60650.10 58620.19 56457.25 54456.64 52461.36 50396.00 48563.83 46788.10 44966.03 
 43008.57 41091.46 39237.01 37328.68 35497.69 33733.59 31903.87 30291.71 28716.43 27211.59 
 25621.55 24039.06 22631.23 21306.82 19940.40 18709.79 17577.76 16450.49 15257.04 14121.47 
 13157.84 12160.48 11252.29 10344.76 9437.24  8633.54  7889.62  7149.40  6444.73  5851.71  
 5303.86  4810.50  4336.53  3915.23  3513.29  3167.93  2847.56  2553.47  2300.27  2059.27  
 1831.41  1623.80  1443.61  1301.17  1176.01  1048.36  920.68   811.58   713.01   620.32   
 542.85   478.35   422.98   374.87   331.02   293.38   261.74   233.93   210.27   189.41   
 170.87   154.56   141.45   129.87   118.09   106.32   93.42    78.53    62.82    51.26    
 44.13    27.18    13.15    11.98    12.83    13.81    14.95    16.22    17.45    18.79    
 20.16    21.59    23.19    24.95    26.77    28.59    30.57    32.59    34.48    36.00    
 37.80    39.77    41.79    43.86    45.97    48.10    50.33    53.25    56.23    58.61    
 61.09    62.98    64.72    67.78    69.79    71.68    74.05    76.65    79.23    81.79    
 84.38    87.09    89.81    92.50    95.07    97.73    100.59   103.59   106.62   109.91   
 113.12   115.93   118.96   122.01   124.84   127.63   130.44   133.22   135.86   138.34   
 105.59   
93400.26 92798.49 92362.06 92198.22 92232.41 92570.46 93162.81 93611.28 92984.55 91883.48 
 91640.03 90606.97 89688.15 88754.80 87570.42 86761.71 85402.98 84583.22 83233.87 82374.73 
 81179.72 79912.98 78896.10 77714.96 76376.72 75128.33 73781.38 72301.99 70860.92 69523.71 
 67766.43 66003.97 64325.04 62682.89 60726.81 58882.60 56844.60 54824.41 53036.30 50649.83 
 48732.47 46769.46 44360.53 42184.82 40437.53 38611.65 36721.13 34770.21 32993.82 31032.11 
 29177.08 27544.60 25835.44 24256.49 22599.60 20961.65 19399.53 17989.48 16616.95 15288.61 
 13992.59 12760.00 11708.64 10659.59 9610.53  8729.04  7883.83  7101.53  6359.89  5688.90  
 5039.67  4461.72  3920.30  3418.46  2975.14  2590.17  2235.33  1896.17  1594.69  1333.98  
 1119.78  906.09   692.41   532.30   393.51   280.19   190.92   118.08   67.22    16.61    
 8.61     8.43     8.42     8.51     8.67     8.86     9.05     9.10     8.93     9.36     
 9.84     10.38    11.00    11.63    12.33    13.11    13.93    14.79    15.69    16.63    
 17.67    18.78    19.95    21.16    22.45    23.83    25.27    26.72    28.28    29.93    
 31.66    33.35    35.14    37.01    38.95    40.88    42.89    45.01    47.20    49.40    
 51.62    53.88    56.14    58.45    60.82    63.28    65.74    68.11    70.49    72.89    
 75.34    77.80    80.11    82.34    84.74    87.20    89.62    91.93    94.15    96.26    
 98.43    100.61   102.75   104.83   106.92   108.92   110.76   112.54   114.35   116.08   
 117.75   119.27   120.75   122.28   123.66   124.95   126.35   127.67   129.00   130.20   
 131.28   132.19   133.12   134.10   134.47   134.44   134.32   133.85   133.12   132.27   
 105.59   
93400.26 92322.02 91402.32 90800.71 90493.29 90484.52 90821.88 91028.16 88510.95 85666.28 
 82215.22 79422.18 77433.16 75549.59 72937.25 70547.66 68074.36 66025.65 63322.39 60589.96 
 57762.25 54962.25 53131.25 51032.14 48410.66 45894.05 43049.46 40579.11 38426.65 36133.87 
 33771.71 31408.33 29203.28 26797.38 24391.48 21990.74 20189.43 18573.91 17047.98 15625.02 
 14226.24 13063.36 11820.89 10551.60 9483.36  8624.91  7856.74  6893.73  5876.09  4906.22  
 4026.27  3328.36  2795.99  2264.77  1887.20  1590.90  1321.50  1092.83  889.56   731.16   
 588.16   472.12   373.63   310.16   246.69   183.45   149.08   121.28   98.91    81.53    
 69.09    57.71    48.08    42.39    36.46    31.71    27.11    23.46    19.80    15.27    
 14.19    13.38    12.18    11.13    10.16    9.15     8.11     7.11     6.84     7.10     
 7.46     7.85     8.29     8.79     9.33     9.88     10.47    11.11    11.81    12.58    
 13.39    14.21    15.10    16.06    17.06    18.10    19.21    20.39    21.58    22.84    
 24.20    25.67    27.13    28.65    30.23    31.93    33.69    35.55    37.38    39.26    
 41.24    43.30    45.42    47.53    49.70    51.93    54.22    56.63    59.08    61.53    
 64.03    66.61    69.19    71.90    74.52    77.19    79.90    82.55    85.05    87.27    
 89.63    92.26    95.30    97.88    99.59    100.99   103.13   105.44   107.67   109.92   
 112.18   114.39   116.46   118.48   120.42   122.28   124.02   125.61   127.11   128.41   
 129.56   130.62   131.60   132.49   133.29   134.02   134.72   135.44   135.84   136.09   
 136.13   136.04   136.07   135.18   134.68   133.52   131.99   130.16   127.97   125.63   
 105.59   
93400.26 91990.58 90876.15 90116.77 88833.22 84228.47 80160.19 78154.65 75280.38 72323.33 
 67727.80 62673.68 59596.66 55254.69 50474.86 47142.19 42808.44 39118.89 34767.19 30107.72 
 27536.91 25538.36 23805.89 22268.22 20728.70 19289.09 17858.54 16639.39 15291.42 13239.41 
 11497.48 9759.49  8021.49  6703.73  5466.17  4814.52  3769.33  3038.04  2346.04  1636.36  
 1283.34  934.81   586.29   443.03   348.07   284.69   235.72   191.60   161.25   135.49   
 116.52   97.63    80.67    66.87    57.78    51.35    45.61    40.81    36.11    33.15    
 30.42    28.05    26.54    24.89    23.32    21.75    20.05    18.45    16.56    13.43    
 12.05    11.41    10.89    10.51    10.10    9.70     9.35     9.00     8.66     8.34     
 8.02     7.72     7.48     7.27     7.11     7.02     7.01     7.25     7.62     8.05     
 8.53     9.03     9.54     10.14    10.81    11.53    12.29    13.09    13.95    14.87    
 15.83    16.83    17.91    19.04    20.23    21.48    22.76    24.14    25.57    27.04    
 28.54    30.16    31.81    33.51    35.28    37.15    39.05    41.00    43.03    45.14    
 47.26    49.45    51.71    54.03    56.35    58.64    61.05    63.53    66.03    68.55    
 71.12    73.70    76.34    79.08    81.82    84.56    87.37    90.21    93.03    95.82    
 98.56    101.42   104.28   107.13   109.93   112.73   115.56   118.46   121.31   123.94   
 126.34   128.65   130.84   132.86   134.74   136.45   137.98   139.38   140.68   141.79   
 142.74   143.55   144.28   144.99   145.46   145.53   145.48   145.26   144.77   143.96   
 142.78   141.48   139.91   137.93   135.29   132.73   130.01   126.86   123.16   119.25   
 105.59   
93400.26 91645.87 90379.29 89046.12 81717.09 77811.06 73305.73 68781.95 62841.14 59576.74 
 52513.18 48326.74 42702.00 37283.92 30836.54 28209.63 26328.32 24447.00 22569.84 21108.81 
 19648.51 18356.25 14124.03 12111.37 10130.10 7805.58  6621.88  4957.25  3977.85  2649.27  
 1325.98  722.40   461.65   334.48   256.60   179.01   135.16   106.88   86.03    66.46    
 54.12    46.26    40.17    36.00    32.97    30.42    28.33    26.95    25.58    24.25    
 23.32    22.60    21.68    20.64    19.77    18.28    17.07    16.38    16.05    15.55    
 14.68    13.14    11.49    10.69    10.26    9.88     9.57     9.26     8.95     8.66     
 8.41     8.16     7.93     7.71     7.47     7.25     7.06     6.91     6.79     6.68     
 6.66     6.64     6.62     6.60     6.58     6.69     6.88     7.17     7.51     7.88     
 8.30     8.77     9.27     9.80     10.39    11.01    11.66    12.35    13.09    13.90    
 14.76    15.65    16.61    17.63    18.68    19.80    20.98    22.21    23.47    24.81    
 26.22    27.73    29.28    30.82    32.41    34.15    35.96    37.85    39.70    41.58    
 43.53    45.57    47.69    49.86    52.02    54.28    56.63    59.06    61.62    64.24    
 66.95    69.75    72.66    75.62    78.62    81.71    84.92    88.22    91.45    94.78    
 98.27    101.70   105.21   108.73   112.28   115.89   119.36   122.80   126.13   129.37   
 132.52   135.56   138.41   141.24   143.95   146.60   149.04   151.00   152.81   154.30   
 155.33   156.06   156.45   156.71   156.80   156.51   156.06   155.39   154.21   152.65   
 150.57   148.17   145.31   141.40   137.18   132.98   128.60   124.22   119.49   114.20   
 105.59   
93400.26 91517.56 90287.13 85120.02 78871.98 72945.10 67137.08 60253.67 54070.97 47932.88 
 41376.12 34790.53 29462.55 27200.28 25270.99 23656.61 22002.00 20434.17 15736.75 13413.68 
 11136.55 8859.61  6582.68  4793.67  3277.37  1309.19  785.44   276.87   168.23   128.08   
 104.69   81.50    65.21    53.92    51.16    44.40    37.17    35.74    31.35    28.52    
 26.91    23.84    22.63    21.85    19.93    19.49    17.52    15.89    14.77    13.66    
 12.86    12.29    11.73    11.19    10.53    9.71     8.57     7.80     7.43     7.20     
 7.02     6.87     6.76     6.63     6.51     6.40     6.28     6.17     6.05     5.93     
 5.83     5.74     5.65     5.60     5.54     5.49     5.45     5.42     5.41     5.40     
 5.40     5.43     5.49     5.56     5.70     5.89     6.11     6.37     6.65     6.96     
 7.30     7.67     8.09     8.56     9.05     9.60     10.20    10.86    11.55    12.30    
 13.12    13.98    14.90    15.86    16.89    18.01    19.16    20.35    21.61    22.97    
 24.37    25.83    27.30    28.83    30.48    32.23    33.99    35.79    37.67    39.67    
 41.69    43.71    45.74    47.91    50.06    52.22    54.40    56.68    59.03    61.45    
 63.92    66.43    69.00    71.65    74.49    77.47    80.64    83.87    87.19    90.58    
 94.13    97.84    101.61   105.46   109.41   113.39   117.43   121.67   125.91   130.01   
 134.00   137.79   141.47   144.80   147.95   150.89   153.52   155.91   158.22   160.43   
 162.25   163.68   164.72   165.26   165.30   164.76   163.75   162.33   160.68   158.70   
 156.01   152.59   148.88   144.55   139.69   134.37   128.86   123.22   117.63   111.40   
 105.59   
93400.26 91231.39 89950.40 84570.15 77586.38 71489.38 63275.45 57817.08 49138.68 42180.02 
 35407.71 29045.58 26528.44 24604.90 22684.52 21110.84 18936.22 14537.72 11548.01 8363.65  
 7099.62  4851.69  2850.15  862.01   462.89   67.12    46.04    29.66    23.51    19.94    
 17.92    16.12    14.93    14.01    13.13    12.48    11.89    11.37    10.73    10.24    
 9.82     9.35     8.86     8.46     8.14     7.80     7.54     7.31     7.11     6.93     
 6.65     6.33     6.03     5.71     5.55     5.48     5.40     5.38     5.36     5.28     
 5.17     4.99     4.85     4.70     4.54     4.44     4.34     4.24     4.15     4.08     
 4.00     3.94     3.93     3.93     3.93     3.95     3.97     4.02     4.07     4.13     
 4.20     4.26     4.37     4.50     4.62     4.79     4.98     5.19     5.41     5.66     
 5.93     6.24     6.57     6.94     7.35     7.79     8.29     8.81     9.39     10.02    
 10.72    11.42    12.17    12.99    13.86    14.78    15.78    16.80    17.88    18.99    
 20.19    21.45    22.75    24.07    25.46    26.96    28.54    30.17    31.84    33.58    
 35.42    37.40    39.51    41.62    43.78    46.05    48.40    50.83    53.31    55.81    
 58.40    60.99    63.66    66.40    69.14    71.92    74.89    77.92    80.99    84.21    
 87.68    91.23    94.96    98.83    102.83   107.07   111.33   115.76   120.28   124.96   
 129.71   134.30   138.65   143.09   147.24   151.12   154.70   157.86   160.79   163.35   
 165.59   167.54   169.07   170.07   170.41   170.11   169.27   167.76   165.69   163.17   
 160.32   156.82   152.74   148.00   142.73   136.68   130.30   123.58   117.25   110.89   
 105.59   
93400.26 91119.97 89901.32 84324.01 77259.20 71616.41 62653.56 56275.25 48772.38 41485.34 
 32765.74 28562.40 26124.51 24019.24 22199.16 20568.68 15748.91 13208.48 10551.83 7893.37  
 5234.90  3573.48  1765.37  942.79   131.30   80.05    36.96    26.22    21.34    18.14    
 16.02    14.32    12.85    11.69    10.85    10.16    9.50     8.94     8.38     7.87     
 7.49     7.14     6.87     6.68     6.42     6.29     6.09     5.94     5.77     5.60     
 5.37     5.15     5.08     5.02     4.96     4.81     4.62     4.40     4.26     4.16     
 4.06     4.00     3.97     3.92     3.88     3.86     3.84     3.84     3.80     3.79     
 3.79     3.77     3.77     3.77     3.76     3.76     3.76     3.80     3.85     3.92     
 4.02     4.14     4.27     4.39     4.53     4.70     4.89     5.12     5.38     5.66     
 5.96     6.30     6.66     7.06     7.47     7.90     8.38     8.90     9.47     10.09    
 10.78    11.51    12.29    13.09    13.96    14.89    15.86    16.85    17.87    18.97    
 20.15    21.38    22.61    23.90    25.26    26.62    28.03    29.48    31.05    32.70    
 34.43    36.25    38.23    40.28    42.42    44.57    46.92    49.39    51.89    54.45    
 57.11    59.82    62.62    65.45    68.33    71.20    74.07    77.12    80.23    83.39    
 86.67    90.12    93.77    97.54    101.44   105.53   109.77   114.03   118.45   123.16   
 127.94   132.69   137.23   141.64   146.21   150.40   154.17   157.42   160.25   162.79   
 164.92   166.73   168.17   169.04   169.24   168.83   167.72   166.00   163.62   160.75   
 157.47   153.48   149.41   145.02   140.47   135.27   129.73   123.94   118.27   112.58   
 105.59   
