IESNA:LM-63-2002
[TEST] 1
[TESTLAB] AOK
[TESTDATE] 2022-06-09
[ISSUEDATE] 2022-06-10 09:04:50
[NEARFIELD] 
[LAMPPOSITION] 0,0
[OTHER] EVERFINE GO-2000A_V1 SYSTEM
[MANUFAC] AOK
[LUMCAT] A
[LUMINAIRE] AOK-400WiSF-HV-S35-00-5070-2030D-P
[LAMPCAT] B
[LAMP] 3535
[BALLAST] E
[BALLASTCAT] F
[OTHER] 
[OTHER] Gamma(deg)    Fz(lm)      Ft(lm)     %Lum    %Lamp
[OTHER]   0- 10     16779.57    16779.57    31.90    31.90
[OTHER]  10- 20     18165.19    34944.76    66.43    66.43
[OTHER]  20- 30      7226.49    42171.24    80.16    80.16
[OTHER]  30- 40      3708.92    45880.16    87.21    87.21
[OTHER]  40- 50      2347.02    48227.18    91.68    91.68
[OTHER]  50- 60      1816.04    50043.22    95.13    95.13
[OTHER]  60- 70      1230.34    51273.56    97.47    97.47
[OTHER]  70- 80       582.01    51855.57    98.57    98.57
[OTHER]  80- 90       236.55    52092.12    99.02    99.02
[OTHER]  90-100       127.52    52219.64    99.27    99.27
[OTHER] 100-110        92.70    52312.34    99.44    99.44
[OTHER] 110-120        75.55    52387.89    99.58    99.58
[OTHER] 120-130        57.49    52445.38    99.69    99.69
[OTHER] 130-140        42.11    52487.48    99.77    99.77
[OTHER] 140-150        35.39    52522.87    99.84    99.84
[OTHER] 150-160        38.80    52561.68    99.92    99.92
[OTHER] 160-170        32.61    52594.29    99.98    99.98
[OTHER] 170-180        11.99    52606.29   100.00   100.00
[OTHER] 
TILT=NONE
1 52606 1 181 25 1 2 0.150 0.200 0.000
1.000 1 405.39
0.0    1.0    2.0    3.0    4.0    5.0    6.0    7.0    8.0    9.0    
 10.0   11.0   12.0   13.0   14.0   15.0   16.0   17.0   18.0   19.0   
 20.0   21.0   22.0   23.0   24.0   25.0   26.0   27.0   28.0   29.0   
 30.0   31.0   32.0   33.0   34.0   35.0   36.0   37.0   38.0   39.0   
 40.0   41.0   42.0   43.0   44.0   45.0   46.0   47.0   48.0   49.0   
 50.0   51.0   52.0   53.0   54.0   55.0   56.0   57.0   58.0   59.0   
 60.0   61.0   62.0   63.0   64.0   65.0   66.0   67.0   68.0   69.0   
 70.0   71.0   72.0   73.0   74.0   75.0   76.0   77.0   78.0   79.0   
 80.0   81.0   82.0   83.0   84.0   85.0   86.0   87.0   88.0   89.0   
 90.0   91.0   92.0   93.0   94.0   95.0   96.0   97.0   98.0   99.0   
 100.0  101.0  102.0  103.0  104.0  105.0  106.0  107.0  108.0  109.0  
 110.0  111.0  112.0  113.0  114.0  115.0  116.0  117.0  118.0  119.0  
 120.0  121.0  122.0  123.0  124.0  125.0  126.0  127.0  128.0  129.0  
 130.0  131.0  132.0  133.0  134.0  135.0  136.0  137.0  138.0  139.0  
 140.0  141.0  142.0  143.0  144.0  145.0  146.0  147.0  148.0  149.0  
 150.0  151.0  152.0  153.0  154.0  155.0  156.0  157.0  158.0  159.0  
 160.0  161.0  162.0  163.0  164.0  165.0  166.0  167.0  168.0  169.0  
 170.0  171.0  172.0  173.0  174.0  175.0  176.0  177.0  178.0  179.0  
 180.0  
0.0    15.0   30.0   45.0   60.0   75.0   90.0   105.0  120.0  135.0  
 150.0  165.0  180.0  195.0  210.0  225.0  240.0  255.0  270.0  285.0  
 300.0  315.0  330.0  345.0  360.0  
227370.27 226296.32 223584.66 217957.99 206330.55 168338.86 136771.89 108280.41 75799.39 55454.84 
 34353.72 24882.09 14550.51 9723.17  4956.06  188.95   98.27    55.16    43.49    33.34    
 27.87    23.29    19.45    17.03    14.91    13.74    12.62    11.13    10.01    9.45     
 9.07     8.82     8.56     7.93     6.88     6.04     5.69     5.58     5.52     5.36     
 5.51     5.56     5.49     5.05     4.91     4.69     4.67     4.87     5.01     4.90     
 4.63     4.43     4.35     4.32     4.29     4.29     4.31     4.15     4.03     3.93     
 3.82     3.75     3.62     3.45     3.33     3.21     3.10     2.95     2.84     2.74     
 2.66     2.59     2.52     2.47     2.43     2.40     2.39     2.39     2.39     2.41     
 2.43     2.46     2.51     2.56     2.68     2.87     3.01     3.13     3.22     3.30     
 3.35     3.42     3.50     3.56     3.57     3.57     3.61     3.68     3.77     3.89     
 4.06     4.24     4.45     4.67     4.93     5.21     5.48     5.75     6.02     6.30     
 6.56     6.81     7.07     7.33     7.59     7.88     8.18     8.51     8.89     9.29     
 9.70     10.14    10.62    11.11    11.61    12.15    12.74    13.36    14.01    14.69    
 15.39    16.10    16.82    17.56    18.34    19.23    20.24    21.41    22.79    24.38    
 26.15    28.18    30.51    33.11    36.03    39.39    43.20    47.62    52.84    59.00    
 66.25    74.42    83.55    93.74    104.55   115.95   127.50   138.94   150.73   162.48   
 173.60   184.12   193.70   201.93   208.24   212.48   214.83   215.07   213.45   210.16   
 205.56   199.66   192.89   185.34   177.69   169.24   160.90   152.27   142.89   133.13   
 122.30   
227370.27 227294.23 225304.67 221146.74 214034.64 187179.04 150815.75 125272.93 96958.12 66485.70 
 52176.74 41912.37 31648.00 21383.63 11119.26 948.53   911.23   733.19   537.07   340.95   
 146.53   172.42   176.95   116.10   124.86   123.21   100.52   60.69    56.21    36.54    
 23.97    17.52    14.89    12.96    11.45    9.58     8.06     6.97     6.33     5.75     
 5.38     5.12     5.10     5.11     5.07     4.89     4.68     4.52     4.36     4.18     
 3.97     3.81     3.70     3.54     3.43     3.32     3.21     3.10     2.99     2.89     
 2.80     2.72     2.64     2.55     2.48     2.43     2.38     2.34     2.31     2.28     
 2.23     2.18     2.13     2.10     2.07     2.04     2.02     2.02     2.01     2.02     
 2.02     2.04     2.07     2.11     2.16     2.22     2.28     2.34     2.41     2.48     
 2.55     2.64     2.73     2.83     2.93     3.04     3.17     3.32     3.47     3.64     
 3.83     4.03     4.24     4.46     4.70     4.95     5.21     5.47     5.71     5.96     
 6.22     6.47     6.73     7.01     7.29     7.60     7.92     8.27     8.65     9.05     
 9.48     9.97     10.47    10.97    11.50    12.05    12.65    13.27    13.91    14.58    
 15.26    15.96    16.68    17.44    18.24    19.20    20.32    21.61    23.03    24.73    
 26.67    28.83    31.21    33.87    36.87    40.34    44.27    48.87    54.20    60.52    
 67.74    76.06    85.01    94.92    105.43   116.34   127.66   138.84   150.39   161.57   
 172.40   182.76   191.82   199.55   205.24   208.95   210.70   210.55   208.62   205.15   
 200.44   194.53   187.90   180.70   173.09   165.61   156.47   147.14   137.89   128.72   
 122.30   
227370.27 227667.53 226063.33 223163.05 218345.02 208590.46 175894.34 146622.05 121303.97 96349.02 
 66919.67 53725.20 34152.11 26485.23 16200.39 11185.00 6224.84  1264.68  1090.44  975.94   
 791.97   450.90   289.62   248.48   249.38   207.59   189.30   142.45   115.90   89.60    
 78.46    73.23    58.19    47.16    41.85    36.18    32.18    26.41    23.47    20.51    
 17.84    15.16    13.95    13.57    12.70    11.35    10.70    9.70     9.12     8.31     
 7.60     6.97     6.33     5.51     5.00     4.73     4.56     4.34     4.07     3.79     
 3.54     3.30     3.12     3.00     2.90     2.78     2.64     2.49     2.37     2.27     
 2.20     2.13     2.08     2.05     2.01     1.97     1.94     1.90     1.86     1.84     
 1.83     1.82     1.82     1.86     1.91     1.98     2.05     2.12     2.21     2.30     
 2.40     2.51     2.62     2.76     2.90     3.05     3.20     3.37     3.54     3.71     
 3.89     4.08     4.27     4.47     4.66     4.87     5.10     5.32     5.56     5.81     
 6.07     6.35     6.64     6.94     7.26     7.59     7.93     8.30     8.68     9.08     
 9.49     9.92     10.37    10.84    11.32    11.81    12.32    12.89    13.49    14.12    
 14.80    15.57    16.45    17.45    18.55    19.84    21.32    22.92    24.77    26.83    
 29.08    31.59    34.40    37.68    41.36    45.55    50.23    55.51    61.47    68.43    
 76.12    84.41    93.16    102.25   111.58   121.73   132.31   142.78   153.07   162.94   
 172.50   180.93   187.92   193.38   197.57   200.02   200.82   200.15   198.05   194.77   
 190.20   185.48   179.45   172.90   165.92   158.68   150.65   142.55   134.89   127.59   
 122.30   
227370.27 228457.38 227603.17 226005.01 223203.25 217520.00 209097.59 187017.85 155236.27 133771.39 
 111398.51 92039.08 66805.80 51884.41 41788.84 31852.99 21934.31 13863.59 9751.83  5640.06  
 1558.22  1367.01  946.73   646.43   453.05   356.29   269.07   182.26   137.99   111.67   
 94.83    82.41    72.62    64.99    58.29    51.94    46.43    41.83    37.30    33.51    
 30.12    27.19    24.62    22.00    19.25    16.25    14.35    12.92    11.87    10.97    
 10.17    9.49     8.87     8.28     7.65     7.16     6.72     6.35     6.00     5.68     
 5.39     5.12     4.84     4.58     4.35     4.15     3.98     3.80     3.61     3.43     
 3.22     3.02     2.83     2.66     2.50     2.37     2.23     2.10     1.99     1.90     
 1.79     1.70     1.70     1.72     1.76     1.82     1.90     1.98     2.07     2.16     
 2.26     2.38     2.49     2.62     2.75     2.88     3.03     3.18     3.35     3.52     
 3.68     3.86     4.04     4.24     4.45     4.67     4.90     5.13     5.37     5.62     
 5.88     6.14     6.43     6.72     7.01     7.32     7.63     7.95     8.27     8.63     
 8.99     9.40     9.80     10.23    10.72    11.24    11.81    12.45    13.15    13.93    
 14.82    15.84    16.95    18.17    19.52    21.06    22.75    24.65    26.73    29.06    
 31.75    34.69    38.05    41.79    46.02    50.80    55.99    61.75    67.91    74.86    
 82.22    90.13    98.26    107.05   116.03   125.17   134.30   143.02   151.59   159.49   
 166.58   172.85   178.05   182.25   185.24   187.14   187.88   187.49   186.32   183.60   
 180.07   176.10   171.76   166.83   161.58   155.81   149.41   143.16   137.46   131.87   
 122.30   
227370.27 228471.00 228241.30 226730.45 223598.58 217756.95 209703.27 201708.85 192537.63 179576.45 
 158914.31 132704.22 112243.85 95928.56 79305.52 65786.85 54102.60 39224.97 30008.26 23862.53 
 17255.39 11468.72 8814.27  6195.67  4859.43  4001.13  1472.92  1080.90  710.91   530.47   
 386.13   285.06   217.25   177.59   147.96   124.79   106.97   89.20    76.40    65.47    
 56.47    48.80    42.76    37.80    33.72    30.20    27.41    24.91    22.86    20.94    
 19.05    17.34    15.62    13.86    12.08    10.62    9.74     9.12     8.53     8.06     
 7.73     7.46     7.21     6.96     6.76     6.56     6.37     6.20     6.05     5.89     
 5.74     5.57     5.40     5.18     4.91     4.64     4.30     3.94     3.56     3.16     
 2.81     2.38     2.00     1.89     1.89     1.91     1.98     2.05     2.14     2.22     
 2.32     2.42     2.53     2.66     2.79     2.92     3.07     3.24     3.40     3.57     
 3.76     3.96     4.16     4.37     4.59     4.83     5.06     5.31     5.54     5.79     
 6.05     6.31     6.59     6.86     7.15     7.44     7.74     8.06     8.40     8.76     
 9.13     9.54     9.99     10.47    10.97    11.56    12.23    12.98    13.78    14.68    
 15.66    16.68    17.86    19.20    20.68    22.27    24.15    26.27    28.68    31.42    
 34.51    37.93    41.86    46.26    51.11    56.41    62.04    68.12    74.66    81.52    
 88.74    96.12    103.72   111.49   119.27   126.90   134.23   141.39   148.11   154.26   
 159.74   164.54   168.62   171.88   174.42   176.08   176.89   177.56   176.89   175.43   
 173.32   170.38   167.07   163.53   159.80   155.64   151.06   146.43   141.92   136.89   
 122.30   
227370.27 228453.05 228675.47 227741.53 224547.63 218768.72 211312.81 204057.75 195065.70 185568.05 
 175585.88 165160.46 152087.20 138465.50 124378.92 109850.84 95676.53 81143.37 68483.19 55403.25 
 44052.07 33036.26 27695.10 22371.92 19185.14 16557.86 13849.95 11491.01 10151.36 8793.72  
 7608.25  5987.56  4784.46  3875.34  3279.91  2684.49  2090.37  1645.35  1357.90  1137.71  
 931.03   754.75   613.13   490.06   385.90   307.86   255.35   202.91   158.01   123.87   
 99.23    80.38    66.39    56.20    47.71    41.56    36.62    32.52    29.21    26.39    
 24.23    22.46    21.11    19.87    18.72    17.61    16.48    15.45    14.33    13.56    
 13.27    13.03    12.86    12.72    12.56    12.37    12.18    11.96    11.73    11.22    
 10.15    8.51     6.41     4.04     1.64     1.56     1.60     1.66     1.72     1.78     
 1.86     1.94     2.02     2.12     2.23     2.35     2.47     2.60     2.75     2.90     
 3.06     3.23     3.41     3.60     3.81     4.02     4.24     4.47     4.70     4.96     
 5.21     5.47     5.73     6.02     6.31     6.60     6.91     7.22     7.54     7.89     
 8.27     8.69     9.15     9.65     10.17    10.74    11.38    12.09    12.85    13.69    
 14.63    15.68    16.82    18.07    19.53    21.16    23.08    25.29    27.72    30.57    
 33.92    37.59    41.70    46.22    51.13    56.50    62.13    68.14    74.40    80.92    
 87.60    94.37    101.04   107.94   114.65   121.29   127.83   133.97   140.17   145.88   
 151.25   156.17   160.66   164.82   168.37   171.37   174.14   175.75   176.57   176.70   
 176.09   174.76   172.78   170.05   166.83   163.39   159.64   155.34   150.49   145.48   
 122.30   
227370.27 227939.56 227834.35 226868.14 223903.54 218557.92 211386.36 204314.00 196089.32 187077.64 
 177620.90 167772.03 156975.35 145499.85 131426.41 115487.35 98438.52 83229.20 69948.12 58761.30 
 49283.35 41578.41 35480.86 30959.48 27336.58 24527.26 21723.89 19422.02 17602.24 15973.38 
 14416.85 12900.28 11449.74 10054.25 8804.17  7679.61  6686.64  5901.84  5290.38  4776.47  
 4385.54  4081.07  3816.28  3569.61  3376.19  3236.23  3094.95  2978.40  2826.84  2648.97  
 2470.82  2270.73  2078.29  1909.48  1747.46  1597.52  1462.51  1346.58  1231.53  1121.91  
 1024.70  931.87   846.49   767.69   696.30   630.42   568.52   508.42   455.23   406.62   
 359.43   317.55   280.42   246.88   213.42   185.75   161.53   138.83   121.28   106.06   
 91.57    79.39    68.56    58.90    49.20    18.16    12.38    7.66     2.27     1.42     
 1.24     0.90     0.88     0.86     0.84     0.84     0.84     0.85     0.85     0.86     
 0.88     0.90     0.91     0.92     0.92     0.93     0.94     0.97     1.00     1.03     
 1.06     1.09     1.13     1.17     1.21     1.25     1.29     1.33     1.37     1.43     
 1.48     1.54     1.61     1.69     1.78     1.87     1.98     2.10     2.23     2.38     
 2.54     2.73     2.94     3.18     3.44     3.75     4.11     4.53     4.99     5.54     
 6.14     6.81     7.55     8.37     9.27     10.27    11.33    12.45    13.64    14.86    
 16.11    17.43    18.79    20.19    21.64    23.14    24.74    26.41    28.26    30.13    
 32.11    34.21    36.36    38.71    41.19    43.90    46.88    50.67    54.39    58.49    
 63.26    68.45    74.24    80.51    87.05    93.87    100.62   107.48   114.34   121.08   
 122.30   
227370.27 227915.68 227643.76 226331.19 223340.46 218612.48 211704.29 204617.11 197004.28 188692.71 
 178979.03 168645.62 156515.95 143783.38 129558.06 115253.88 100456.50 86272.99 72986.03 60976.60 
 50713.51 43301.16 37649.36 33645.72 30018.85 27014.56 24875.77 22985.66 21167.04 19420.04 
 17788.00 16097.92 14501.92 12930.43 11602.52 10276.68 8950.84  7940.63  7138.78  6502.79  
 5997.45  5612.40  5276.84  5004.47  4781.04  4596.42  4418.12  4260.68  4115.81  3980.65  
 3857.90  3725.72  3582.26  3427.12  3258.67  3085.71  2898.71  2718.80  2555.74  2397.22  
 2247.94  2112.72  1986.81  1871.77  1762.03  1652.34  1547.05  1447.40  1348.99  1253.39  
 1168.26  1083.20  998.15   918.29   842.49   774.08   712.80   652.92   596.75   544.14   
 495.82   449.91   407.90   372.39   340.23   310.16   284.25   261.94   243.54   227.41   
 212.81   197.84   184.75   172.89   162.33   151.98   142.89   134.94   127.51   120.36   
 113.21   106.75   101.76   97.05    92.36    88.67    85.17    81.21    78.30    75.76    
 72.75    70.33    67.82    64.90    62.22    59.68    56.81    54.34    51.77    49.43    
 46.91    44.36    41.95    39.34    36.31    33.42    30.17    26.58    22.68    18.17    
 13.09    9.32     7.01     5.37     4.01     3.01     2.87     3.12     3.51     3.95     
 4.45     5.02     5.62     6.34     7.15     8.01     8.94     9.90     10.94    12.02    
 13.13    14.25    15.41    16.60    17.79    19.00    20.30    21.61    22.97    24.41    
 25.92    27.53    29.21    31.06    32.99    35.13    37.52    40.29    43.62    48.08    
 52.69    57.46    64.21    71.00    78.28    86.29    94.46    102.77   111.02   119.30   
 122.30   
227370.27 227740.23 227032.36 225333.36 222647.97 218719.77 213484.31 206825.20 198850.64 188465.97 
 176082.02 161992.60 146777.53 131239.53 116373.80 102476.42 89619.90 76997.12 65793.98 56505.33 
 49060.47 42924.31 38364.76 34669.92 31559.55 28967.68 26636.93 24430.61 22225.82 20143.25 
 18103.55 16130.72 14172.99 12397.64 10874.53 9533.25  8429.14  7549.82  6862.78  6381.40  
 6028.00  5741.27  5509.98  5308.20  5140.92  4987.56  4831.19  4689.75  4564.36  4446.18  
 4331.23  4219.45  4105.90  3978.31  3847.02  3700.48  3546.26  3382.68  3203.54  3024.51  
 2855.72  2708.06  2560.40  2412.89  2276.59  2138.87  2003.74  1873.52  1744.25  1622.81  
 1499.30  1381.99  1273.82  1175.27  1078.28  985.46   893.32   809.65   733.36   663.89   
 597.76   537.72   484.60   438.83   398.17   364.54   337.29   314.34   294.27   277.60   
 262.45   247.84   233.24   218.68   208.04   198.58   189.41   181.18   173.37   166.06   
 159.86   153.97   148.65   143.67   139.38   134.96   131.21   127.68   124.52   121.60   
 118.80   116.47   114.02   111.30   109.01   106.81   104.70   102.51   100.53   98.55    
 96.49    94.80    93.28    91.22    89.26    87.36    85.27    83.16    81.32    79.32    
 77.62    75.31    73.50    71.55    69.57    67.47    65.03    62.39    59.55    56.75    
 53.39    49.61    46.64    43.67    39.79    36.17    32.98    15.34    11.32    9.88     
 10.37    11.53    12.87    14.25    15.66    17.11    18.58    20.04    21.54    23.09    
 24.62    26.14    27.72    29.41    31.14    32.97    35.01    37.32    39.86    42.85    
 46.66    51.36    57.46    64.08    71.77    80.09    89.49    99.07    108.99   118.90   
 122.30   
227370.27 227133.69 225434.04 222952.65 219655.45 215356.41 209284.62 199895.98 187061.01 170900.91 
 152170.25 133251.37 116363.65 101719.54 90015.59 79531.44 71046.97 63188.60 56171.96 50223.99 
 45062.92 40784.70 36762.87 33007.61 29333.54 25900.98 22513.77 19309.46 16424.85 13933.63 
 12033.63 10858.52 9690.05  8999.98  8468.12  8011.59  7631.33  7285.70  6945.67  6648.70  
 6364.14  6094.48  5846.96  5633.62  5424.99  5246.01  5078.08  4919.44  4764.08  4599.54  
 4424.19  4281.85  4161.81  4042.78  3924.16  3785.94  3648.76  3511.58  3367.20  3225.56  
 3078.34  2927.48  2787.77  2642.18  2501.73  2353.73  2214.05  2071.66  1937.24  1793.68  
 1650.45  1526.44  1405.71  1286.27  1178.87  1071.59  964.31   862.35   777.33   700.76   
 631.25   568.86   514.33   464.22   423.59   390.42   362.36   337.31   316.38   299.96   
 285.01   269.98   256.41   244.80   234.11   225.26   217.64   211.25   205.72   200.51   
 195.90   191.72   187.94   184.51   181.46   178.51   175.78   173.60   171.13   169.00   
 166.78   164.78   162.52   160.61   158.61   156.66   154.75   152.93   151.10   149.28   
 147.19   144.85   142.55   140.03   137.90   135.86   133.69   131.21   128.70   125.79   
 122.88   120.23   117.41   114.76   111.72   108.86   106.18   103.33   100.37   97.67    
 94.58    91.38    88.96    86.32    83.83    81.58    77.08    73.85    71.04    67.29    
 63.96    57.25    53.62    51.56    49.18    27.24    20.70    20.32    21.90    22.64    
 23.26    24.99    27.02    29.21    31.45    33.72    35.90    38.18    40.73    43.47    
 46.63    50.36    54.96    60.47    66.87    74.66    84.51    95.17    106.20   117.01   
 122.30   
227370.27 226706.08 224325.76 220916.79 216681.34 210420.21 200272.65 185896.30 167603.99 147399.29 
 127308.78 109438.26 95071.27 83814.97 74380.31 66600.49 60343.94 54827.29 50303.08 45914.97 
 41371.68 36692.33 31823.05 27589.07 23355.10 19140.86 16619.50 15009.01 13964.45 13131.53 
 12424.26 11778.88 11238.00 10722.37 10251.13 9752.60  9240.33  8782.04  8335.23  7946.54  
 7552.05  7202.91  6871.59  6577.45  6287.12  5979.52  5735.59  5510.88  5290.83  5060.59  
 4845.79  4654.27  4475.80  4320.17  4175.78  4038.72  3914.76  3784.40  3652.55  3529.57  
 3415.09  3277.13  3110.44  2941.34  2770.68  2597.54  2424.59  2269.93  2120.60  1962.70  
 1803.76  1654.96  1520.57  1392.97  1262.28  1151.40  1048.76  948.76   857.57   774.78   
 701.36   632.18   569.52   520.64   479.01   443.48   412.20   385.25   362.06   343.75   
 327.63   311.17   295.37   281.29   269.88   260.13   252.72   246.75   242.54   238.25   
 233.98   231.39   229.34   227.74   226.24   225.45   224.89   224.41   224.03   223.57   
 223.29   222.99   222.30   221.50   220.73   219.13   216.93   214.08   210.91   207.34   
 203.29   198.79   194.12   189.61   185.19   180.91   176.93   173.09   169.11   165.43   
 162.03   158.33   154.43   150.86   147.26   143.58   139.76   135.90   132.00   127.38   
 121.75   116.28   110.57   105.80   102.00   98.95    96.36    94.61    93.43    90.93    
 89.60    85.80    81.72    78.76    75.85    73.63    65.92    64.58    61.09    39.40    
 25.99    26.98    28.44    30.34    32.57    35.60    38.75    42.00    44.94    47.73    
 50.66    53.70    57.05    60.95    65.94    72.19    80.11    90.05    101.38   112.85   
 122.30   
227370.27 225729.89 222307.52 217808.10 211600.96 201431.90 185922.35 165816.72 143596.24 122039.02 
 103416.76 89550.23 79057.45 70405.60 63617.53 58341.80 53809.28 49857.33 45883.49 41195.35 
 35746.83 30228.24 25155.18 21345.66 18913.37 17602.43 16806.10 16126.20 15559.62 15049.38 
 14594.90 14172.51 13738.57 13213.73 12652.55 12023.94 11432.77 10841.91 10225.75 9639.30  
 9073.14  8573.15  8102.19  7655.09  7225.42  6827.92  6479.94  6142.38  5841.35  5563.84  
 5312.44  5094.93  4903.33  4751.58  4648.60  4598.89  4622.88  4664.72  4747.95  4617.63  
 4412.71  4197.00  3926.67  3708.97  3427.00  3171.22  2948.50  2687.65  2433.67  2183.36  
 1999.15  1835.91  1672.06  1529.35  1400.05  1283.26  1177.01  1070.85  964.69   876.49   
 793.30   720.51   659.05   605.68   558.16   518.28   482.34   450.62   425.26   404.15   
 384.32   364.20   344.33   326.93   312.39   299.55   289.14   281.46   275.19   270.61   
 267.21   264.77   263.28   262.54   262.23   262.23   262.66   262.88   262.32   261.20   
 260.33   259.84   259.54   259.41   259.06   258.15   256.64   254.56   251.70   247.75   
 243.45   238.51   232.86   226.87   220.87   214.74   208.40   202.14   196.59   191.32   
 186.24   181.20   176.28   171.50   167.02   162.55   157.98   146.00   140.65   137.03   
 133.22   129.22   125.29   121.36   117.38   113.51   109.47   105.79   102.07   98.36    
 95.50    92.66    91.10    88.56    84.13    83.30    82.55    80.18    74.34    70.65    
 66.25    34.38    31.65    34.56    37.63    41.05    44.96    49.01    52.85    56.34    
 59.38    62.22    64.68    67.03    70.10    74.66    80.74    89.43    99.76    111.21   
 122.30   
227370.27 225392.34 221487.71 216161.66 208485.69 196250.56 178788.64 155961.15 131701.50 109094.40 
 92078.38 80628.16 72087.45 65430.04 60163.39 55941.50 52153.59 48441.65 44496.60 39545.29 
 33759.24 29382.38 25005.52 20659.43 19061.35 18248.89 17658.25 17157.85 16791.43 16449.14 
 16059.52 15656.48 15178.13 14572.32 13968.14 13257.96 12499.56 11750.07 11012.75 10357.15 
 9726.88  9112.71  8546.41  8053.86  7580.50  7180.94  6807.73  6433.87  6107.62  5822.78  
 5564.07  5352.77  5169.23  5003.88  4899.09  5084.06  5303.82  5380.96  5456.16  5360.16  
 5036.03  4792.94  4359.52  4115.12  3866.53  3532.58  3280.48  2947.36  2659.35  2372.23  
 2162.95  1962.70  1794.53  1646.37  1508.19  1377.57  1254.99  1137.27  1039.01  946.02   
 859.52   779.77   714.71   656.31   605.33   559.97   520.89   485.39   456.74   432.41   
 410.46   388.88   367.00   347.71   329.91   314.85   302.15   292.26   284.38   277.92   
 273.15   270.08   267.78   266.26   265.35   264.70   264.10   263.78   262.56   260.90   
 258.51   256.21   254.35   252.74   251.04   249.43   247.55   245.25   242.70   237.79   
 232.89   228.38   223.33   217.98   212.48   206.89   201.15   195.72   190.51   185.50   
 180.67   175.96   171.29   166.56   162.00   157.54   153.03   148.43   136.10   130.96   
 127.58   124.44   121.16   117.73   114.30   111.04   107.90   104.90   102.09   99.50    
 96.74    95.20    93.95    92.88    92.15    91.41    90.62    89.69    86.63    76.10    
 73.44    68.00    37.11    40.18    43.56    47.65    52.09    56.79    61.17    65.19    
 68.55    71.48    73.85    75.67    77.55    80.16    84.06    90.29    99.02    110.05   
 122.30   
227370.27 224648.78 220178.78 214293.64 206196.20 193420.17 175250.19 152842.99 129751.37 108650.06 
 91738.60 80373.64 71829.44 65350.29 60213.68 56112.91 52568.17 48875.65 45094.69 40810.99 
 35427.60 29927.40 25019.47 21327.20 19279.32 18190.73 17564.91 17082.50 16678.81 16382.56 
 16063.65 15673.36 15128.22 14510.51 13805.16 13114.89 12412.88 11694.10 10975.20 10256.29 
 9640.18  9021.46  8468.02  7953.67  7505.01  7079.78  6715.70  6346.12  6020.63  5733.21  
 5461.27  5241.57  5056.43  4885.23  4752.24  4703.77  4821.65  4851.91  4840.92  4707.21  
 4492.28  4250.89  4022.67  3748.12  3535.62  3350.55  3060.32  2791.19  2523.06  2293.45  
 2116.71  1959.25  1780.34  1624.41  1485.53  1357.64  1239.46  1130.12  1020.86  929.28   
 843.67   769.91   701.81   644.20   594.06   551.31   511.71   477.00   448.78   425.40   
 404.09   383.01   362.63   343.81   327.55   312.86   300.00   290.09   281.32   274.64   
 268.59   264.13   260.42   257.11   254.11   250.93   248.15   245.01   241.49   237.58   
 233.70   229.91   226.51   223.33   220.15   217.02   213.75   210.28   206.50   202.02   
 198.10   194.00   189.78   185.65   181.55   177.68   173.71   169.67   166.01   162.44   
 158.92   155.22   151.82   148.38   145.03   141.59   138.41   128.49   125.01   121.57   
 119.06   116.19   113.41   110.49   107.66   105.53   102.99   100.74   98.01    95.37    
 94.01    92.48    91.37    88.42    87.27    87.40    87.75    87.10    82.63    80.14    
 77.37    43.17    43.86    47.25    51.62    56.56    61.58    66.38    70.79    74.51    
 77.62    80.20    82.14    83.63    85.07    86.98    89.90    94.69    101.16   109.42   
 122.30   
227370.27 224730.64 220566.06 215228.68 208115.37 197967.07 184716.59 167439.64 147861.93 127426.05 
 108624.36 93426.40 82037.52 73055.26 65711.68 60150.69 55853.83 51726.77 47934.63 44129.66 
 40367.85 36050.57 31146.53 27113.10 23079.67 19067.69 16895.09 15601.51 14779.74 14159.11 
 13642.07 13194.04 12776.54 12368.13 11984.46 11485.30 10930.34 10358.98 9822.38  9315.88  
 8786.65  8324.76  7879.52  7461.58  7086.42  6706.73  6352.34  6040.83  5735.21  5454.26  
 5196.81  4965.29  4761.39  4591.46  4418.52  4268.93  4130.92  3990.96  3855.25  3740.89  
 3605.56  3455.82  3303.36  3126.65  2959.12  2785.16  2614.56  2443.94  2270.93  2115.61  
 1963.33  1813.38  1667.38  1530.87  1393.64  1269.93  1157.56  1052.11  953.31   862.93   
 782.24   708.25   641.10   583.48   534.60   493.01   455.61   423.34   396.31   375.94   
 357.40   340.84   323.38   306.54   291.88   278.73   266.70   257.04   248.32   240.61   
 232.93   227.42   222.06   216.96   212.18   207.74   203.32   199.00   194.70   190.59   
 186.64   182.98   179.56   176.19   172.87   169.83   166.64   163.62   160.66   157.52   
 153.99   150.85   147.68   144.85   141.89   139.25   136.85   134.66   131.90   129.50   
 127.16   125.04   122.14   120.06   117.89   115.59   113.60   111.49   109.49   107.48   
 104.56   100.64   96.91    92.46    89.29    87.23    86.08    85.76    85.16    86.37    
 85.07    81.18    79.36    78.53    77.03    76.53    74.08    73.24    69.46    41.70    
 42.13    45.07    48.88    53.65    58.78    63.92    68.71    73.28    77.22    80.71    
 83.64    85.81    87.63    89.52    91.46    93.75    97.04    101.50   107.02   113.32   
 122.30   
227370.27 224620.76 220715.12 216133.68 210618.35 203535.35 194647.69 182716.31 167931.14 150290.16 
 132393.50 116338.37 102063.81 89803.20 80106.00 71976.61 65076.59 58863.70 53687.27 48675.29 
 44417.64 40412.64 36762.65 33111.77 29603.64 26037.16 22656.73 19500.67 16511.90 14118.82 
 12397.02 11506.24 10623.07 9739.91  9238.46  8813.02  8431.21  8057.79  7750.45  7466.05  
 7185.89  6893.32  6634.78  6378.96  6125.98  5889.10  5677.28  5480.15  5292.79  5085.38  
 4893.64  4703.90  4537.87  4387.34  4242.96  4092.22  3949.45  3807.16  3657.64  3507.24  
 3344.78  3184.27  3039.79  2884.64  2733.79  2582.99  2435.00  2289.04  2136.68  1994.30  
 1846.38  1702.84  1574.58  1448.08  1325.22  1212.02  1105.77  999.58   896.63   811.29   
 735.05   664.39   598.76   542.50   492.42   451.26   415.21   384.91   358.25   337.86   
 321.54   304.70   288.55   272.31   258.46   245.74   235.11   225.24   216.68   208.86   
 201.05   194.40   188.03   181.74   176.19   170.87   166.29   161.84   157.56   153.89   
 150.70   147.12   143.59   140.57   137.91   135.42   133.23   131.05   128.52   125.99   
 123.45   121.09   118.72   116.65   114.90   112.75   110.73   109.05   107.36   105.86   
 104.17   102.06   99.96    98.16    96.48    94.35    92.20    90.19    88.27    86.05    
 83.11    80.80    77.82    75.01    73.05    69.69    67.12    65.64    62.99    60.17    
 58.63    54.07    52.57    52.62    34.78    30.10    32.10    36.06    39.06    42.74    
 47.12    51.62    56.09    60.54    64.72    68.73    72.48    75.92    79.05    81.89    
 84.45    86.96    89.59    92.41    95.58    99.49    104.02   109.03   114.36   119.99   
 122.30   
227370.27 225128.23 222030.51 218479.75 214401.68 209872.52 204647.66 198133.27 189935.10 179068.05 
 165797.65 151397.74 136879.38 123798.72 111896.78 100338.16 88732.81 77839.96 67995.29 59179.36 
 51673.13 45236.44 40337.44 36341.52 33129.97 30355.41 27748.35 25590.88 23433.42 21274.09 
 18970.87 16884.31 14810.64 13006.41 11402.91 9959.86  8800.63  7878.45  7203.83  6717.66  
 6339.42  6037.91  5798.19  5595.15  5407.32  5251.87  5085.73  4932.27  4800.55  4676.89  
 4556.39  4432.47  4323.37  4213.67  4095.45  3958.32  3816.35  3672.27  3518.80  3351.74  
 3187.35  3011.88  2848.24  2701.14  2554.04  2407.01  2267.31  2126.12  1987.21  1850.90  
 1723.18  1599.66  1477.17  1364.62  1256.96  1154.11  1052.14  957.06   872.31   791.88   
 716.06   646.13   582.13   526.77   478.98   436.97   400.89   371.24   346.44   325.13   
 308.38   293.10   277.73   262.43   249.13   235.83   222.56   212.05   202.13   192.74   
 183.88   175.14   167.77   161.24   155.08   149.12   143.22   137.96   133.40   129.30   
 125.58   121.87   118.27   114.90   111.92   109.14   106.66   104.10   101.44   98.62    
 96.21    94.10    91.45    89.30    87.15    84.63    82.22    80.06    77.72    75.57    
 73.05    70.61    68.45    66.33    64.33    61.81    59.94    57.62    55.58    52.94    
 49.57    46.20    42.93    39.28    35.89    21.80    14.26    12.77    13.46    15.51    
 17.88    20.49    23.33    26.41    29.73    33.26    36.94    40.72    44.60    48.43    
 52.25    55.94    59.52    62.99    66.24    69.41    72.43    75.38    78.25    81.12    
 83.98    87.07    90.58    94.52    98.90    103.71   108.90   114.26   119.91   125.53   
 122.30   
227370.27 225616.46 223344.33 220682.30 217659.30 214114.16 210103.14 204999.93 198266.39 191207.88 
 182561.61 172903.98 162562.12 151105.51 138816.80 126545.50 113855.46 101215.10 87912.42 73813.27 
 61001.25 51033.22 43168.38 37495.39 33025.29 29729.84 27083.94 24815.11 22741.29 20903.55 
 19135.57 17400.01 15871.27 14229.18 12749.01 11454.79 10162.09 8869.39  7909.11  7168.74  
 6548.43  6076.97  5680.58  5367.01  5122.64  4913.12  4713.56  4572.12  4439.21  4294.66  
 4157.26  4022.36  3888.69  3753.82  3625.38  3468.81  3304.33  3126.90  2940.90  2766.12  
 2596.66  2436.96  2288.16  2154.35  2017.07  1887.80  1768.67  1652.46  1544.72  1440.69  
 1335.07  1237.10  1144.74  1052.41  967.48   889.13   815.30   745.10   681.88   621.89   
 566.82   516.57   469.83   426.36   386.99   354.04   323.18   295.55   272.55   253.44   
 236.89   224.61   212.40   200.07   187.91   177.34   168.62   159.57   150.77   142.02   
 134.53   126.99   119.44   111.90   106.26   101.76   97.12    91.77    87.67    83.34    
 79.60    75.98    72.22    68.60    65.67    62.00    58.30    54.59    50.57    47.01    
 43.46    40.08    36.66    33.09    29.63    25.91    21.93    17.76    14.74    12.63    
 10.49    5.62     3.60     3.67     4.02     4.41     4.88     5.41     5.99     6.71     
 7.52     8.45     9.49     10.64    11.95    13.43    15.05    16.82    18.75    20.87    
 23.15    25.55    28.12    30.85    33.72    36.68    39.86    43.05    46.35    49.64    
 52.87    56.16    59.35    62.57    65.70    68.90    72.11    75.42    78.76    82.24    
 85.91    89.91    94.36    99.09    104.21   109.89   115.79   121.93   128.02   134.02   
 122.30   
227370.27 226392.05 224956.83 223122.98 221036.91 218407.97 213299.26 207699.45 201209.55 193615.96 
 183830.72 174606.13 165203.35 155031.08 143331.02 129913.80 115219.19 99289.45 84546.52 71980.27 
 60081.25 50171.75 42027.91 35548.57 30594.86 26637.80 23360.57 20668.67 18537.13 16715.22 
 15038.58 13540.59 12119.43 10783.48 9448.51  8192.14  7168.06  6294.94  5548.37  4990.60  
 4576.64  4205.49  3905.38  3656.34  3401.13  3220.80  3084.81  2954.48  2835.39  2702.04  
 2541.04  2380.11  2197.28  2012.98  1831.46  1675.88  1537.36  1408.60  1282.73  1172.48  
 1062.39  952.30   855.78   765.64   686.27   612.56   540.98   472.77   412.28   358.71   
 310.11   265.99   226.67   191.96   162.67   137.31   116.91   96.57    81.31    68.27    
 59.19    51.53    44.28    36.75    32.39    30.73    16.96    3.52     2.13     2.12     
 2.09     2.01     1.98     1.98     2.03     2.03     2.07     2.14     2.22     2.30     
 2.39     2.49     2.59     2.70     2.82     2.96     3.09     3.24     3.39     3.55     
 3.72     3.90     4.08     4.25     4.44     4.65     4.86     5.08     5.31     5.54     
 5.81     6.09     6.38     6.70     7.07     7.47     7.93     8.42     8.98     9.61     
 10.31    11.10    11.99    13.00    14.09    15.39    16.88    18.57    20.59    22.88    
 25.63    28.64    32.14    36.14    40.57    45.40    50.66    56.28    62.40    68.73    
 75.33    82.03    88.80    95.59    102.37   108.90   115.10   121.16   127.00   132.40   
 137.47   142.13   146.32   150.08   153.32   156.00   158.21   159.87   160.93   161.44   
 161.30   160.50   159.12   157.20   154.94   151.72   147.96   143.74   139.01   133.76   
 122.30   
227370.27 226287.13 224606.54 222709.14 220816.43 218559.98 214110.98 208665.73 201690.31 194501.32 
 183097.09 172257.01 161364.25 147028.29 129563.81 111502.74 92915.75 78330.98 66449.97 55877.74 
 45820.79 34680.19 29254.88 23829.57 18428.48 15808.51 12257.00 9904.39  8331.61  7255.46  
 6318.39  5426.59  4040.83  3305.54  2801.82  2297.55  1731.89  1458.07  1199.80  971.19   
 732.34   571.53   469.19   389.26   315.53   257.47   199.57   161.79   136.94   113.36   
 95.67    84.13    73.00    61.63    54.14    48.13    42.81    38.73    35.12    31.89    
 29.12    27.26    25.63    24.00    22.52    20.93    19.05    16.43    15.95    16.03    
 16.05    16.00    16.10    16.24    16.34    16.32    16.21    16.14    15.85    15.35    
 14.54    13.23    11.25    8.48     5.50     1.94     1.57     1.61     1.66     1.72     
 1.78     1.85     1.92     2.01     2.11     2.22     2.32     2.44     2.57     2.71     
 2.85     3.00     3.16     3.33     3.50     3.68     3.87     4.08     4.29     4.51     
 4.73     4.96     5.20     5.45     5.70     5.96     6.23     6.51     6.79     7.09     
 7.41     7.76     8.14     8.53     8.97     9.47     9.99     10.58    11.22    11.93    
 12.72    13.58    14.59    15.66    16.86    18.19    19.80    21.61    23.68    26.01    
 28.84    32.00    35.59    39.62    44.15    49.14    54.57    60.33    66.37    72.86    
 79.47    86.26    92.85    99.65    106.28   112.73   119.04   124.95   130.69   136.03   
 141.03   145.61   149.79   153.59   156.97   159.84   162.21   164.13   165.48   166.22   
 166.30   165.63   164.38   162.36   159.76   156.37   151.84   146.55   140.66   134.33   
 122.30   
227370.27 225921.49 223921.45 221569.02 218787.47 215620.06 211276.89 201733.71 180805.69 156554.08 
 136796.53 118681.59 99344.99 85187.35 69625.48 52736.35 44228.65 37807.41 26600.27 20063.07 
 16120.39 12716.18 9317.92  5919.67  1859.97  1220.00  973.40   730.53   521.42   376.96   
 278.93   224.37   189.05   164.43   143.20   125.52   109.69   93.87    83.50    74.01    
 65.44    57.97    50.77    44.85    40.35    36.37    33.35    30.29    27.98    25.78    
 22.90    19.71    15.27    12.36    11.35    10.81    10.23    9.70     9.17     8.68     
 8.36     7.95     7.60     7.37     7.05     6.84     6.65     6.45     6.27     6.14     
 6.01     5.89     5.71     5.52     5.34     5.15     4.85     4.44     4.00     3.62     
 3.21     2.79     2.33     2.02     1.91     1.91     1.93     2.00     2.07     2.15     
 2.23     2.32     2.42     2.54     2.66     2.80     2.95     3.10     3.26     3.43     
 3.60     3.78     3.97     4.17     4.37     4.59     4.80     5.04     5.27     5.50     
 5.74     6.00     6.25     6.52     6.79     7.07     7.35     7.64     7.95     8.28     
 8.62     8.98     9.38     9.81     10.26    10.75    11.30    11.94    12.65    13.42    
 14.27    15.21    16.22    17.37    18.68    20.13    21.72    23.60    25.71    28.12    
 30.85    34.01    37.63    41.70    46.25    51.32    56.94    62.93    69.30    76.25    
 83.56    91.03    98.57    106.05   113.41   120.99   128.41   135.33   141.77   147.70   
 153.35   158.33   162.51   166.13   169.38   171.94   174.00   175.54   176.39   176.64   
 176.29   175.21   173.26   170.69   167.51   163.12   157.79   151.71   145.01   137.21   
 122.30   
227370.27 225895.39 223670.64 220077.71 215252.86 208853.79 185776.04 155670.98 138070.98 114983.48 
 93883.52 68576.54 55954.06 44447.17 30599.88 23245.72 15916.14 11175.91 6435.68  1729.13  
 1547.65  1147.17  750.63   525.28   459.55   329.35   270.13   210.98   160.12   121.32   
 101.70   87.14    76.35    67.86    61.05    55.07    50.57    45.58    41.15    37.33    
 33.59    29.73    26.14    21.36    17.52    15.73    14.68    13.74    12.78    11.93    
 11.07    10.30    9.59     8.79     7.99     7.30     6.78     6.34     6.02     5.68     
 5.32     5.02     4.76     4.52     4.31     4.11     3.90     3.65     3.49     3.37     
 3.26     3.14     3.01     2.86     2.71     2.59     2.47     2.36     2.25     2.16     
 2.05     1.98     1.98     2.00     2.03     2.08     2.14     2.21     2.28     2.35     
 2.43     2.50     2.59     2.69     2.80     2.92     3.04     3.18     3.33     3.48     
 3.64     3.80     3.97     4.16     4.36     4.56     4.77     4.98     5.21     5.44     
 5.68     5.94     6.20     6.47     6.75     7.04     7.34     7.63     7.94     8.26     
 8.60     8.96     9.34     9.71     10.14    10.63    11.15    11.72    12.35    13.07    
 13.88    14.81    15.84    16.99    18.24    19.68    21.31    23.09    25.04    27.27    
 29.83    32.68    35.90    39.54    43.70    48.45    53.67    59.45    65.77    72.73    
 80.14    88.12    96.26    104.97   113.79   122.72   131.59   140.08   148.45   156.15   
 163.22   169.48   174.90   179.56   183.21   186.06   187.99   188.77   188.75   187.92   
 186.32   184.01   180.87   177.08   172.69   167.52   161.27   154.32   146.61   138.03   
 122.30   
227370.27 225723.88 222898.22 217810.94 210328.08 183222.52 149036.54 126311.05 102230.59 74064.43 
 58137.86 40461.63 29778.88 18591.73 12876.80 7135.57  1393.46  1282.61  1048.33  811.60   
 574.88   349.56   384.33   235.58   277.05   230.14   171.51   150.89   126.57   102.19   
 92.72    76.91    59.08    55.95    48.32    42.94    36.98    34.85    24.27    21.58    
 18.90    18.92    17.09    15.59    14.41    13.73    11.76    10.50    9.72     9.27     
 8.37     7.73     7.15     6.34     5.40     4.87     4.66     4.54     4.40     4.18     
 3.93     3.71     3.53     3.32     3.14     2.97     2.82     2.70     2.58     2.48     
 2.37     2.29     2.21     2.16     2.10     2.05     2.00     1.97     1.93     1.90     
 1.88     1.88     1.88     1.91     1.96     2.02     2.08     2.15     2.23     2.32     
 2.41     2.50     2.60     2.70     2.82     2.94     3.07     3.22     3.37     3.54     
 3.72     3.90     4.10     4.30     4.52     4.74     4.97     5.21     5.45     5.70     
 5.97     6.24     6.53     6.82     7.13     7.45     7.77     8.10     8.45     8.81     
 9.17     9.54     9.94     10.36    10.79    11.23    11.71    12.20    12.71    13.29    
 13.94    14.67    15.52    16.49    17.58    18.88    20.33    21.93    23.75    25.80    
 28.07    30.72    33.64    36.98    40.71    44.90    49.69    55.19    61.42    68.30    
 75.75    83.80    92.45    101.53   111.08   120.87   130.82   140.92   151.14   160.89   
 169.89   178.10   185.28   191.52   196.22   199.50   201.41   202.00   201.38   199.61   
 196.70   192.70   187.94   182.27   176.22   169.29   161.27   153.57   144.86   134.96   
 122.30   
227370.27 226096.06 223408.45 218004.57 208368.43 171848.08 139052.00 111149.67 82096.75 57358.28 
 40643.23 28620.58 16632.43 8705.51  848.36   753.14   717.36   458.02   378.63   455.91   
 346.88   237.85   129.25   73.48    55.38    40.70    30.04    25.60    21.56    18.86    
 17.46    16.34    15.21    14.08    13.12    10.61    8.40     7.38     6.97     6.79     
 6.44     6.18     5.89     5.63     5.44     5.24     4.98     4.71     4.56     4.34     
 4.16     4.04     3.83     3.64     3.53     3.37     3.20     3.10     3.00     2.86     
 2.75     2.67     2.59     2.54     2.48     2.43     2.40     2.38     2.36     2.33     
 2.29     2.27     2.22     2.19     2.15     2.11     2.08     2.06     2.06     2.06     
 2.07     2.08     2.11     2.14     2.18     2.22     2.27     2.32     2.37     2.44     
 2.52     2.60     2.67     2.74     2.82     2.92     3.03     3.17     3.33     3.49     
 3.67     3.87     4.08     4.31     4.56     4.82     5.08     5.34     5.60     5.86     
 6.12     6.39     6.66     6.92     7.21     7.51     7.81     8.14     8.48     8.86     
 9.25     9.67     10.11    10.58    11.08    11.59    12.11    12.65    13.22    13.80    
 14.42    15.07    15.77    16.52    17.35    18.32    19.47    20.78    22.27    23.98    
 25.98    28.21    30.68    33.49    36.60    40.24    44.40    49.14    54.62    61.05    
 68.37    76.63    85.39    95.16    105.41   116.05   127.14   138.09   149.54   160.62   
 171.48   181.73   190.75   198.57   204.59   209.29   212.02   212.86   212.09   209.77   
 206.18   200.84   194.94   188.10   180.39   172.09   163.19   154.04   144.40   134.35   
 122.30   
227370.27 226296.32 223584.66 217957.99 206330.55 168338.86 136771.89 108280.41 75799.39 55454.84 
 34353.72 24882.09 14550.51 9723.17  4956.06  188.95   98.27    55.16    43.49    33.34    
 27.87    23.29    19.45    17.03    14.91    13.74    12.62    11.13    10.01    9.45     
 9.07     8.82     8.56     7.93     6.88     6.04     5.69     5.58     5.52     5.36     
 5.51     5.56     5.49     5.05     4.91     4.69     4.67     4.87     5.01     4.90     
 4.63     4.43     4.35     4.32     4.29     4.29     4.31     4.15     4.03     3.93     
 3.82     3.75     3.62     3.45     3.33     3.21     3.10     2.95     2.84     2.74     
 2.66     2.59     2.52     2.47     2.43     2.40     2.39     2.39     2.39     2.41     
 2.43     2.46     2.51     2.56     2.68     2.87     3.01     3.13     3.22     3.30     
 3.35     3.42     3.50     3.56     3.57     3.57     3.61     3.68     3.77     3.89     
 4.06     4.24     4.45     4.67     4.93     5.21     5.48     5.75     6.02     6.30     
 6.56     6.81     7.07     7.33     7.59     7.88     8.18     8.51     8.89     9.29     
 9.70     10.14    10.62    11.11    11.61    12.15    12.74    13.36    14.01    14.69    
 15.39    16.10    16.82    17.56    18.34    19.23    20.24    21.41    22.79    24.38    
 26.15    28.18    30.51    33.11    36.03    39.39    43.20    47.62    52.84    59.00    
 66.25    74.42    83.55    93.74    104.55   115.95   127.50   138.94   150.73   162.48   
 173.60   184.12   193.70   201.93   208.24   212.48   214.83   215.07   213.45   210.16   
 205.56   199.66   192.89   185.34   177.69   169.24   160.90   152.27   142.89   133.13   
 122.30   
