IESNA:LM-63-2002
[TEST] 1
[TESTLAB] AOK
[TESTDATE] 2022-05-17
[ISSUEDATE] 2022-05-17 14:30:23
[NEARFIELD] 
[LAMPPOSITION] 0,0
[OTHER] EVERFINE GO-2000A_V1 SYSTEM
[MANUFAC] AOK
[LUMCAT] A
[LUMINAIRE] AOK-800WiSF-NV-S5-00-5070-3585D-P
[LAMPCAT] B
[LAMP] 5050
[BALLAST] E
[BALLASTCAT] F
[OTHER] 
[OTHER] Gamma(deg)    Fz(lm)      Ft(lm)     %Lum    %Lamp
[OTHER]   0- 10      8109.48     8109.48     7.58     7.58
[OTHER]  10- 20     18424.99    26534.47    24.80    24.80
[OTHER]  20- 30     21095.28    47629.74    44.51    44.51
[OTHER]  30- 40     20061.14    67690.89    63.26    63.26
[OTHER]  40- 50     16282.14    83973.03    78.48    78.48
[OTHER]  50- 60     11554.02    95527.05    89.28    89.28
[OTHER]  60- 70      6593.66   102120.71    95.44    95.44
[OTHER]  70- 80      2948.53   105069.24    98.19    98.19
[OTHER]  80- 90      1028.86   106098.10    99.15    99.15
[OTHER]  90-100       362.24   106460.33    99.49    99.49
[OTHER] 100-110       158.10   106618.43    99.64    99.64
[OTHER] 110-120       107.31   106725.74    99.74    99.74
[OTHER] 120-130        82.73   106808.46    99.82    99.82
[OTHER] 130-140        65.53   106873.99    99.88    99.88
[OTHER] 140-150        51.50   106925.49    99.93    99.93
[OTHER] 150-160        38.78   106964.27    99.96    99.96
[OTHER] 160-170        28.37   106992.64    99.99    99.99
[OTHER] 170-180        10.41   107003.05   100.00   100.00
[OTHER] 
TILT=NONE
1 1.07e+005 1 181 25 1 2 0.150 0.200 0.000
1.000 1 764.68
0.0    1.0    2.0    3.0    4.0    5.0    6.0    7.0    8.0    9.0    
 10.0   11.0   12.0   13.0   14.0   15.0   16.0   17.0   18.0   19.0   
 20.0   21.0   22.0   23.0   24.0   25.0   26.0   27.0   28.0   29.0   
 30.0   31.0   32.0   33.0   34.0   35.0   36.0   37.0   38.0   39.0   
 40.0   41.0   42.0   43.0   44.0   45.0   46.0   47.0   48.0   49.0   
 50.0   51.0   52.0   53.0   54.0   55.0   56.0   57.0   58.0   59.0   
 60.0   61.0   62.0   63.0   64.0   65.0   66.0   67.0   68.0   69.0   
 70.0   71.0   72.0   73.0   74.0   75.0   76.0   77.0   78.0   79.0   
 80.0   81.0   82.0   83.0   84.0   85.0   86.0   87.0   88.0   89.0   
 90.0   91.0   92.0   93.0   94.0   95.0   96.0   97.0   98.0   99.0   
 100.0  101.0  102.0  103.0  104.0  105.0  106.0  107.0  108.0  109.0  
 110.0  111.0  112.0  113.0  114.0  115.0  116.0  117.0  118.0  119.0  
 120.0  121.0  122.0  123.0  124.0  125.0  126.0  127.0  128.0  129.0  
 130.0  131.0  132.0  133.0  134.0  135.0  136.0  137.0  138.0  139.0  
 140.0  141.0  142.0  143.0  144.0  145.0  146.0  147.0  148.0  149.0  
 150.0  151.0  152.0  153.0  154.0  155.0  156.0  157.0  158.0  159.0  
 160.0  161.0  162.0  163.0  164.0  165.0  166.0  167.0  168.0  169.0  
 170.0  171.0  172.0  173.0  174.0  175.0  176.0  177.0  178.0  179.0  
 180.0  
0.0    15.0   30.0   45.0   60.0   75.0   90.0   105.0  120.0  135.0  
 150.0  165.0  180.0  195.0  210.0  225.0  240.0  255.0  270.0  285.0  
 300.0  315.0  330.0  345.0  360.0  
88476.06 86158.12 84976.54 80284.08 73389.95 67840.48 59790.35 53682.32 46336.58 39521.66 
 31711.68 27160.75 24817.64 22760.25 21046.50 19498.89 15142.10 12631.16 9951.51  7269.45  
 4997.81  3515.22  1876.46  1406.78  950.26   493.74   37.21    22.01    17.34    14.47    
 12.68    11.31    10.17    9.21     8.60     8.10     7.64     7.23     6.79     6.44     
 6.14     5.89     5.69     5.58     5.44     5.35     5.19     5.09     4.98     4.86     
 4.66     4.50     4.43     4.41     4.38     4.27     4.11     3.92     3.78     3.70     
 3.61     3.57     3.55     3.51     3.49     3.48     3.48     3.48     3.45     3.45     
 3.45     3.44     3.44     3.44     3.44     3.44     3.44     3.49     3.56     3.62     
 3.72     3.83     3.95     4.07     4.21     4.37     4.56     4.77     5.01     5.28     
 5.57     5.89     6.23     6.59     6.99     7.42     7.87     8.37     8.88     9.48     
 10.12    10.80    11.53    12.31    13.14    13.98    14.89    15.84    16.83    17.85    
 18.95    20.10    21.29    22.49    23.75    25.07    26.40    27.77    29.25    30.75    
 32.39    34.11    35.98    37.90    39.87    41.92    44.16    46.45    48.82    51.23    
 53.72    56.29    58.94    61.62    64.30    67.02    69.81    72.70    75.62    78.61    
 81.71    84.92    88.30    91.91    95.67    99.52    103.45   107.42   111.66   116.09   
 120.54   124.98   129.39   133.61   137.86   141.75   145.36   148.57   151.32   153.73   
 155.72   157.48   158.92   159.78   159.97   159.59   158.56   156.89   154.73   152.02   
 148.95   145.21   141.28   137.15   132.91   128.00   122.76   117.29   111.97   106.57   
 100.08   
88476.06 85341.45 84152.54 82695.18 73647.37 68807.36 63054.25 55828.66 49762.63 43043.29 
 36981.08 28960.40 26379.42 23798.44 21226.24 19630.17 18014.23 13863.73 11611.12 9081.83  
 6751.51  4670.43  3296.90  1923.37  560.36   408.60   256.84   106.35   90.85    71.47    
 49.78    45.06    37.63    32.50    33.17    29.57    21.57    17.46    14.50    12.72    
 11.71    10.93    10.11    9.43     8.86     8.28     7.68     7.03     6.70     6.50     
 6.25     6.08     5.91     5.72     5.54     5.42     5.28     5.11     4.93     4.88     
 4.82     4.76     4.70     4.64     4.54     4.41     4.26     4.14     4.02     3.91     
 3.82     3.75     3.69     3.68     3.68     3.67     3.66     3.66     3.68     3.73     
 3.80     3.88     4.00     4.14     4.31     4.48     4.68     4.91     5.16     5.44     
 5.73     6.06     6.40     6.80     7.22     7.69     8.18     8.73     9.32     9.97     
 10.64    11.33    12.07    12.88    13.73    14.64    15.60    16.59    17.61    18.68    
 19.79    20.95    22.15    23.38    24.62    25.96    27.41    28.92    30.42    32.00    
 33.71    35.58    37.53    39.49    41.48    43.56    45.71    47.97    50.25    52.58    
 54.93    57.36    59.79    62.24    64.71    67.26    69.90    72.60    75.36    78.26    
 81.39    84.66    88.06    91.60    95.21    99.01    102.89   106.86   110.94   115.18   
 119.52   123.76   127.86   131.97   135.82   139.29   142.53   145.46   148.23   150.67   
 152.70   154.35   155.49   155.98   155.22   154.42   153.19   151.46   149.40   147.10   
 144.43   141.63   138.46   134.99   131.31   127.25   122.79   118.13   113.34   108.56   
 100.08   
88476.06 85696.38 83350.76 82302.30 77447.48 71836.07 66287.67 60825.65 54303.51 48464.42 
 42765.85 36710.95 30402.94 25563.28 23157.17 21236.32 19399.26 17923.20 16327.38 12518.39 
 10381.35 8264.68  6148.00  4558.63  3487.27  2387.20  1686.94  990.87   294.81   205.60   
 147.85   124.88   102.33   79.78    61.79    54.36    47.12    39.81    35.82    33.50    
 29.79    26.79    23.85    21.84    20.10    18.38    16.76    15.27    14.01    12.60    
 11.21    9.82     8.68     8.39     8.79     8.97     8.74     8.30     7.82     7.35     
 6.94     6.58     6.26     5.97     5.73     5.53     5.35     5.18     5.00     4.84     
 4.70     4.58     4.46     4.34     4.23     4.14     4.06     4.01     3.98     3.98     
 4.00     4.14     4.32     4.53     4.76     5.01     5.28     5.59     5.93     6.31     
 6.71     7.16     7.65     8.18     8.77     9.37     10.05    10.76    11.52    12.32    
 13.18    14.08    15.01    15.97    16.97    18.07    19.19    20.32    21.47    22.69    
 24.00    25.37    26.76    28.19    29.67    31.26    32.90    34.53    36.25    38.05    
 39.83    41.65    43.53    45.45    47.37    49.32    51.31    53.40    55.51    57.65    
 59.88    62.17    64.60    67.14    69.74    72.46    75.35    78.40    81.53    84.75    
 87.99    91.31    94.75    98.39    102.09   105.85   109.69   113.61   117.41   121.12   
 124.78   128.27   131.66   134.87   137.92   140.66   143.18   145.48   147.54   149.35   
 150.76   151.67   152.14   152.23   151.85   151.10   150.01   148.61   147.44   145.63   
 143.57   141.19   138.48   135.68   132.55   129.06   125.29   121.30   117.59   113.63   
 100.08   
88476.06 85854.35 83412.16 81993.73 81050.12 76986.08 70668.30 67107.27 62798.93 57406.68 
 52357.82 47554.82 42008.24 37932.06 33540.36 27704.81 24949.79 22203.76 20380.89 18576.72 
 16990.22 15448.27 14104.69 10971.20 9264.53  7494.50  5677.81  4808.42  3576.48  2732.79  
 1888.38  949.20   575.77   398.29   323.69   249.09   174.93   151.39   127.84   109.74   
 91.36    79.20    68.81    59.92    51.94    45.84    40.41    35.34    32.19    29.45    
 26.62    22.63    18.77    15.83    14.03    12.87    12.70    12.21    11.66    10.92    
 10.22    9.58     9.00     8.48     8.06     7.72     7.39     7.04     6.75     6.48     
 6.23     5.97     5.71     5.45     5.21     4.96     4.75     4.59     4.48     4.47     
 4.51     4.67     4.93     5.24     5.57     5.94     6.34     6.80     7.28     7.79     
 8.33     8.89     9.49     10.16    10.87    11.58    12.35    13.18    14.08    15.05    
 16.03    17.02    18.06    19.17    20.34    21.54    22.79    24.07    25.41    26.79    
 28.25    29.76    31.32    32.85    34.45    36.11    37.86    39.66    41.45    43.30    
 45.23    47.24    49.34    51.46    53.60    55.83    58.22    60.68    63.16    65.74    
 68.35    71.07    73.90    76.73    79.60    82.54    85.59    88.65    91.68    94.78    
 98.00    101.22   104.38   107.51   110.61   113.72   116.68   119.64   122.48   125.24   
 127.98   130.57   133.01   135.41   137.68   139.77   141.66   143.13   144.41   145.37   
 146.12   146.68   147.02   147.04   146.83   146.44   145.81   144.93   143.87   142.68   
 141.21   139.58   138.26   135.73   133.04   130.38   127.46   124.48   121.69   118.64   
 100.08   
88476.06 86372.61 84112.26 82740.90 81654.02 80097.69 78822.17 74871.49 70118.12 67196.28 
 63484.01 60098.90 56562.82 52243.02 49084.08 46231.99 41752.57 38194.98 35225.27 31632.55 
 28252.56 24503.86 21876.71 19990.06 18312.87 16688.22 15219.04 13832.72 12397.10 10918.39 
 9439.14  7959.90  6614.58  5359.88  4307.84  3589.27  2933.23  2346.53  1811.48  1336.23  
 1045.64  757.37   469.10   353.90   279.55   219.34   175.09   140.98   121.61   102.40   
 83.19    71.98    60.60    53.01    45.63    39.62    35.75    32.22    28.03    25.49    
 22.29    18.96    15.86    14.96    14.23    13.27    12.21    11.33    10.40    9.73     
 9.25     8.69     8.21     7.85     7.46     7.04     6.59     6.20     5.87     5.65     
 5.58     5.73     6.07     6.46     6.88     7.32     7.79     8.30     8.87     9.48     
 10.14    10.86    11.63    12.44    13.30    14.19    15.15    16.18    17.25    18.38    
 19.56    20.83    22.13    23.49    24.92    26.40    27.97    29.53    31.13    32.85    
 34.66    36.49    38.31    40.25    42.27    44.34    46.45    48.55    50.80    53.13    
 55.46    57.83    60.25    62.81    65.34    67.91    70.57    73.32    76.08    78.81    
 81.60    84.37    87.17    89.98    92.76    95.50    98.29    101.09   103.88   106.63   
 109.33   111.99   114.64   117.24   119.74   122.19   124.62   126.93   128.94   130.80   
 132.49   134.03   135.55   136.72   138.02   139.17   140.15   140.97   141.72   142.49   
 143.13   143.69   144.15   144.48   144.62   144.67   144.37   143.81   143.17   142.39   
 141.64   140.30   138.89   137.43   135.67   133.78   132.00   130.04   127.88   125.60   
 100.08   
88476.06 87499.38 85548.89 84237.74 83006.01 81579.79 80442.73 78824.61 77811.61 76198.47 
 75009.70 73592.40 72170.41 70190.01 67224.31 64872.52 61962.34 59729.75 57573.95 55359.90 
 52823.75 50512.79 48258.06 45775.46 43365.02 40792.55 38285.73 36182.45 33794.47 31562.04 
 29028.85 26719.67 24704.76 22689.85 20676.78 18883.43 17055.16 15316.94 13818.46 12455.31 
 11179.76 10121.53 9014.47  8016.60  7016.87  6128.36  5298.99  4545.25  3779.74  3145.61  
 2511.47  1879.78  1498.53  1208.36  987.94   814.76   663.83   535.40   418.51   321.21   
 256.06   191.12   149.11   117.33   93.38    74.70    60.51    48.89    38.71    33.23    
 27.94    22.97    18.47    17.43    15.72    13.96    12.39    11.16    9.91     8.33     
 6.47     5.39     5.47     5.82     6.19     6.61     7.08     7.56     8.08     8.65     
 9.25     9.88     10.56    11.32    12.13    12.99    13.87    14.85    15.87    16.99    
 18.15    19.35    20.61    21.96    23.40    24.89    26.46    28.09    29.71    31.44    
 33.30    35.25    37.20    39.16    41.19    43.35    45.58    47.90    50.18    52.53    
 54.97    57.49    60.14    62.82    65.42    68.13    70.86    73.66    76.50    79.35    
 82.12    84.98    87.82    90.64    93.26    95.97    98.74    101.34   103.86   106.06   
 107.66   109.83   112.20   114.45   116.69   118.95   121.05   123.07   124.92   126.72   
 128.46   130.13   131.69   133.19   134.58   135.93   137.21   138.38   139.50   140.53   
 141.49   142.48   143.44   144.22   144.87   145.35   145.56   145.53   145.44   145.25   
 144.91   144.42   143.81   143.15   142.30   141.02   139.71   138.33   136.70   134.99   
 100.08   
88476.06 88531.19 87736.80 87262.99 86800.54 85954.21 85135.60 83983.90 83366.91 82081.00 
 81028.41 80414.82 79271.34 78393.25 77253.83 76032.07 74957.86 74158.23 72913.35 71578.56 
 70100.11 69031.95 67714.78 66350.57 64724.43 63309.59 61475.47 60070.38 58389.55 56421.69 
 54537.63 52526.76 50766.57 48827.12 46991.92 45156.15 42920.66 40761.80 38985.94 37427.51 
 35648.49 33829.81 31955.55 30226.23 28551.73 26759.25 25169.63 23579.63 21957.58 20356.90 
 18913.52 17556.61 16236.99 14948.40 13734.61 12584.39 11526.43 10507.36 9516.02  8641.28  
 7841.79  7088.65  6343.82  5680.65  5059.24  4510.85  3992.65  3522.98  3070.01  2692.90  
 2316.49  2000.19  1712.86  1458.14  1223.18  1010.00  817.04   655.21   510.76   387.74   
 300.08   212.41   125.16   73.44    27.34    5.76     4.03     3.42     3.36     3.29     
 3.17     2.75     2.49     2.54     2.62     2.73     2.87     3.03     3.22     3.41     
 3.61     3.82     4.02     4.24     4.47     4.71     4.96     5.25     5.54     5.84     
 6.17     6.53     6.91     7.31     7.74     8.21     8.69     9.20     9.72     10.27    
 10.86    11.49    12.12    12.77    13.45    14.16    14.90    15.68    16.46    17.27    
 18.09    18.96    19.85    20.81    21.79    22.78    23.84    24.95    26.09    27.24    
 28.46    29.73    31.06    32.49    33.97    35.56    37.20    38.80    40.45    42.15    
 43.94    45.80    47.73    49.76    51.87    54.10    56.48    59.08    61.77    64.56    
 67.52    70.74    74.14    77.71    81.29    84.82    88.16    91.42    94.49    97.71    
 100.86   104.06   107.11   110.00   112.66   114.90   117.07   119.17   121.04   122.86   
 100.08   
88476.06 89207.48 89197.24 89823.80 90350.90 90807.65 90936.39 91170.16 91465.15 91792.79 
 91763.57 92076.39 92211.51 92308.95 92514.58 92254.98 91916.39 91440.02 90934.21 90095.25 
 89164.88 88173.51 86888.61 85544.94 84012.07 82361.16 80492.39 78310.41 75771.43 73349.20 
 70831.89 68313.66 65984.03 63708.25 61493.16 59423.14 57282.01 54947.47 52778.07 50916.69 
 49022.30 47055.38 45252.22 43298.13 41382.79 39540.06 37681.89 35819.56 34121.91 32421.54 
 30577.45 29056.03 27497.71 25987.13 24493.06 23007.15 21709.97 20466.62 19251.81 17989.03 
 16818.28 15699.51 14578.08 13536.82 12572.53 11644.53 10716.85 9789.17  9020.73  8226.37  
 7515.25  6824.35  6217.55  5636.54  5143.99  4664.08  4215.20  3797.11  3419.98  3091.63  
 2793.01  2516.21  2255.87  2029.68  1815.32  1629.53  1460.28  1316.39  1188.34  1060.44  
 932.53   820.25   721.08   632.93   555.17   490.47   433.04   386.02   343.99   307.05   
 275.32   248.46   225.40   205.18   186.26   169.06   154.06   140.74   129.77   118.82   
 107.86   100.24   92.73    83.75    73.33    61.57    48.87    37.25    29.99    22.53    
 11.64    7.67     7.42     7.89     8.40     8.94     9.55     10.15    10.82    11.53    
 12.23    12.93    13.74    14.58    15.47    16.35    17.40    18.70    19.38    19.89    
 20.71    21.58    22.39    23.24    24.13    24.89    25.62    26.66    28.22    29.72    
 31.03    32.38    33.09    34.25    35.85    37.53    39.41    41.44    43.57    45.91    
 48.44    51.25    54.27    57.60    61.19    65.23    68.95    72.10    75.66    79.33    
 83.13    86.94    90.61    94.14    97.58    100.88   104.22   107.42   110.53   113.66   
 100.08   
88476.06 89867.89 91348.27 92861.12 94745.33 96520.02 98180.41 99670.46 100994.15 102445.46 
 103474.06 103995.61 104006.63 103549.02 102432.72 100517.83 97850.98 95292.54 93076.06 90980.29 
 88778.08 86538.43 84177.19 82068.14 79917.37 77974.88 76017.69 74170.80 72166.96 70110.55 
 68326.80 66501.22 64590.32 62582.48 60513.66 58373.26 56285.49 54242.82 52282.97 50215.56 
 48198.30 46346.35 44506.96 42817.12 41226.42 39529.99 38064.75 36475.74 34931.43 33440.14 
 32025.38 30643.55 29333.50 27999.05 26666.13 25442.10 24218.07 22992.31 21614.81 20309.46 
 19128.22 18165.73 17156.15 16147.72 15196.70 14211.53 13242.16 12304.39 11355.91 10431.72 
 9535.40  8728.19  7966.04  7168.34  6353.59  5636.05  5026.10  4463.35  3978.09  3475.68  
 3077.46  2760.43  2444.23  2198.01  1975.92  1781.98  1612.89  1474.00  1350.71  1219.83  
 1092.29  974.13   868.19   778.53   697.32   630.78   572.96   524.18   481.72   443.81   
 411.59   383.22   358.83   338.41   320.56   304.82   290.89   277.91   266.95   257.56   
 248.70   239.84   231.00   223.89   216.86   210.22   203.92   197.87   192.19   186.14   
 180.14   174.36   168.55   162.52   155.40   147.08   138.06   129.07   119.83   109.87   
 98.87    87.49    73.78    51.50    33.93    26.10    21.73    18.81    12.89    9.78     
 10.31    11.07    11.86    12.69    13.55    14.45    15.38    16.32    17.32    18.34    
 19.48    20.70    21.84    23.25    26.99    33.27    27.00    27.91    29.50    31.31    
 33.39    35.80    38.64    41.82    45.10    48.48    51.63    55.19    58.96    62.95    
 66.97    71.17    75.36    79.52    83.75    87.87    92.11    96.24    100.48   104.78   
 100.08   
88476.06 90899.17 93536.33 95970.66 99049.13 101820.05 104572.20 107031.99 108472.06 108893.45 
 108396.37 105699.65 102779.64 100539.38 97947.82 95666.26 93261.25 91212.91 89300.20 87264.66 
 85015.71 82816.89 80265.97 77543.71 74743.84 72039.59 69552.65 67206.15 65038.35 63060.42 
 61404.58 59923.94 58797.35 57726.00 56843.45 55790.14 54739.42 53700.77 52481.03 51056.57 
 49518.01 47822.24 46229.08 44777.06 43378.38 41819.89 39915.36 38040.03 36401.54 34680.67 
 33055.87 31519.39 30039.80 28536.74 27089.52 25638.80 24308.25 22998.76 21685.44 20303.92 
 19010.10 17728.47 16547.47 15315.44 14078.90 12954.45 11863.07 10705.33 9547.02  8510.79  
 7673.49  6963.80  6285.39  5652.41  5096.56  4485.05  3969.21  3539.93  3162.58  2819.41  
 2525.27  2265.27  2019.77  1801.00  1621.99  1466.49  1333.55  1214.62  1120.16  1025.93  
 921.92   826.10   744.13   672.73   611.04   558.80   515.27   477.99   446.71   419.37   
 396.18   376.61   359.34   344.20   330.38   317.80   307.01   297.03   288.07   279.12   
 271.13   264.02   258.10   251.75   245.88   240.28   235.11   230.23   224.94   219.82   
 215.01   209.98   204.04   197.91   191.78   185.56   179.60   173.91   168.15   162.46   
 156.94   151.69   146.79   141.68   136.56   131.05   123.92   116.77   108.40   98.34    
 88.05    79.34    69.17    44.74    20.94    16.76    14.38    12.90    11.55    11.59    
 12.54    13.53    14.56    15.67    16.86    18.07    19.40    20.84    22.54    24.60    
 27.13    34.67    35.54    32.72    35.20    38.04    41.18    44.54    48.13    51.92    
 55.94    60.14    64.48    68.76    73.12    77.58    82.42    87.47    92.52    97.73    
 100.08   
88476.06 91518.52 95240.00 98939.18 102443.79 106033.52 109063.19 110716.03 111404.53 109284.95 
 106204.41 103748.35 101367.20 98898.61 96818.25 94794.78 92520.35 89961.55 87004.28 83472.32 
 80160.18 76986.52 74052.41 71456.77 69465.68 67926.55 66774.85 65955.84 64912.54 63807.37 
 62544.51 61134.81 59779.05 58228.39 56402.55 54273.93 52228.69 50139.10 48011.86 45745.98 
 43569.20 41495.98 39639.88 38047.92 36472.65 34962.32 33539.95 32121.25 30675.16 29277.82 
 27948.54 26634.46 25258.63 23882.79 22507.32 21167.10 19842.90 18611.95 17422.91 16249.33 
 15118.02 14066.05 12914.39 11657.66 10601.48 9733.13  8954.86  8221.77  7543.26  6927.26  
 6357.51  5829.97  5308.82  4716.87  4289.66  3899.30  3527.98  3180.30  2881.37  2582.44  
 2284.07  2035.17  1811.92  1622.40  1450.89  1302.12  1177.81  1069.73  980.84   906.56   
 831.60   750.48   675.82   609.72   552.47   505.93   466.34   431.03   401.08   375.43   
 355.84   339.86   326.78   315.11   304.90   296.22   288.81   281.19   274.32   268.34   
 262.20   255.86   250.39   244.24   238.10   231.95   225.83   219.49   213.23   207.06   
 201.99   196.93   192.30   188.14   184.14   180.41   176.52   172.68   168.82   164.97   
 161.29   157.53   153.56   149.69   145.90   141.88   137.34   132.64   126.71   119.85   
 112.71   103.22   95.30    92.29    89.35    84.69    84.64    80.16    70.77    34.86    
 19.09    16.45    15.18    13.11    13.47    14.77    16.17    17.65    19.24    20.97    
 22.73    24.66    26.70    29.27    35.36    42.37    35.99    39.16    42.51    46.20    
 50.01    54.05    58.29    62.47    66.68    71.14    76.03    81.47    87.18    93.13    
 100.08   
88476.06 92386.44 96590.41 101119.20 105519.06 109492.72 111796.89 112558.09 109988.35 106977.90 
 104476.91 102107.81 100046.29 98134.63 95774.19 93011.88 89646.15 85948.89 82228.51 78877.71 
 76095.14 73818.99 71973.07 70676.10 69622.59 68467.50 67200.09 65851.81 64447.61 62812.33 
 60812.99 58535.82 56025.41 53552.70 51259.44 49095.08 46895.93 44573.04 42291.26 40023.45 
 37851.18 35894.53 34289.86 33106.09 32109.11 31149.57 30146.54 29111.30 28047.92 26888.72 
 25636.59 24360.51 23112.02 21859.83 20631.46 19427.18 18322.59 17214.88 16135.01 14915.98 
 13596.28 12438.34 11591.16 10747.06 9902.96  9161.90  8487.53  7866.58  7279.98  6728.78  
 6189.98  5534.59  5060.52  4619.96  4217.99  3851.88  3490.53  3113.09  2793.19  2524.22  
 2275.86  2047.44  1831.30  1642.82  1472.56  1328.27  1197.13  1091.99  987.09   908.71   
 837.81   758.51   676.09   603.21   538.23   482.99   437.42   400.28   369.64   341.98   
 318.94   300.72   287.75   277.04   268.05   260.42   253.51   247.37   241.80   236.19   
 231.02   225.94   221.47   216.48   212.09   207.23   202.85   198.57   194.14   188.98   
 184.38   180.21   175.83   171.89   168.29   164.70   161.19   157.95   155.02   152.04   
 148.63   145.26   141.80   138.60   135.31   132.20   125.52   118.81   116.83   114.44   
 111.91   109.02   106.08   103.17   100.19   97.71    95.13    91.22    85.39    82.39    
 78.30    59.04    15.69    13.42    12.64    13.82    14.86    16.37    18.15    20.01    
 22.19    24.58    26.95    29.39    31.97    35.69    49.09    39.30    42.20    45.70    
 49.50    53.49    57.69    61.93    66.15    70.66    75.48    80.97    86.57    92.50    
 100.08   
88476.06 92516.37 96852.35 101413.52 105928.93 109912.45 112139.10 112409.90 109448.13 106660.27 
 104215.30 101965.50 100165.04 98161.27 95691.51 92644.56 88996.79 85088.43 81543.02 78547.27 
 75921.21 73799.51 72513.36 71539.75 70527.46 69248.81 67877.18 66340.32 64559.22 62540.53 
 60189.54 57592.11 55166.46 52868.53 50653.44 48404.68 45980.21 43429.43 40913.06 38626.70 
 36706.03 35239.74 34120.36 33195.89 32334.23 31416.83 30474.94 29468.88 28390.61 27232.55 
 26022.74 24786.74 23549.95 22252.68 21034.75 19825.16 18681.10 17541.64 16383.02 15127.34 
 13778.17 12633.31 11792.17 10991.86 10217.63 9476.38  8784.75  8150.76  7570.73  7040.50  
 6509.60  5855.17  5340.89  4870.74  4466.61  4081.67  3708.12  3332.55  2993.88  2724.21  
 2454.85  2213.54  1993.45  1784.19  1595.41  1422.27  1277.48  1151.69  1040.15  946.68   
 868.27   797.86   716.94   634.86   561.79   497.49   443.53   398.33   360.04   328.56   
 300.87   279.28   262.00   251.09   242.18   233.30   227.19   221.78   217.07   212.80   
 208.72   204.73   200.69   197.06   193.52   190.08   186.98   183.78   180.69   177.59   
 174.65   171.21   168.51   165.97   163.38   160.67   158.05   155.38   153.03   150.43   
 148.07   145.37   142.61   139.86   136.80   134.02   130.88   126.26   119.58   117.35   
 114.99   113.18   111.09   108.44   105.79   103.23   100.88   98.53    96.09    93.68    
 90.93    86.37    64.55    17.58    16.01    15.21    14.96    16.41    18.75    20.63    
 23.01    25.60    28.24    31.13    34.11    37.69    47.51    45.40    44.97    48.42    
 52.12    56.06    60.18    64.48    68.57    72.79    77.44    82.63    88.25    94.12    
 100.08   
88476.06 92370.53 96545.04 100698.29 104741.74 108164.25 109935.58 109671.03 106690.92 104095.95 
 102012.96 99957.91 98149.49 96374.42 94145.68 91439.74 88116.76 84479.51 81112.61 78096.09 
 75563.56 73285.63 71889.69 70876.85 70047.14 68995.86 67758.84 66476.93 64984.25 63262.92 
 61293.24 59004.69 56568.58 54213.28 52050.33 49951.59 47845.54 45539.83 43125.64 40829.03 
 38631.25 36703.99 35099.74 33854.15 32838.54 31918.78 30980.26 30049.41 29028.61 27940.56 
 26769.07 25589.88 24367.64 23133.27 21875.34 20679.74 19515.99 18415.08 17283.40 16182.77 
 15031.50 13761.94 12577.88 11636.86 10816.13 9996.51  9284.66  8604.68  7963.03  7384.77  
 6843.91  6344.61  5769.01  5195.23  4732.35  4332.34  3954.70  3577.26  3218.45  2882.80  
 2615.16  2358.38  2112.01  1893.69  1698.35  1523.82  1363.75  1227.59  1115.62  1003.87  
 913.46   843.08   771.12   692.14   617.47   548.57   491.54   445.38   406.36   372.82   
 343.93   320.56   301.49   288.36   277.07   268.35   261.13   254.96   249.53   244.24   
 239.37   235.10   230.88   226.79   223.09   219.43   216.24   213.02   209.53   205.75   
 201.28   197.40   193.18   188.88   184.79   180.83   176.61   172.43   168.57   164.52   
 160.78   157.20   153.29   148.60   142.97   137.16   130.28   124.92   119.56   119.65   
 122.91   123.52   121.56   118.84   115.48   112.30   108.64   103.48   96.09    90.61    
 84.38    64.41    26.08    21.69    19.18    17.14    17.89    20.28    22.78    25.44    
 28.27    31.23    34.31    37.58    41.14    47.58    52.45    49.38    52.29    55.58    
 58.98    62.67    66.68    70.51    74.24    78.25    82.64    87.44    92.39    97.62    
 100.08   
88476.06 91790.82 95281.78 98869.69 102432.71 105854.52 108217.04 109456.13 108818.53 106089.71 
 103897.55 102368.55 100620.38 99106.48 97663.60 95969.88 93785.34 91197.16 88028.99 84478.37 
 80957.22 77828.98 75036.88 72726.80 70723.56 69353.33 68229.71 67241.37 66185.59 65019.37 
 63724.97 62467.58 60987.04 59391.09 57563.00 55508.48 53387.98 51280.48 49285.35 47258.41 
 45174.82 43220.28 41211.41 39358.80 37555.19 35963.01 34485.08 33133.41 31933.83 30770.09 
 29677.23 28656.60 27507.75 26357.09 25106.36 23895.15 22683.70 21450.57 20192.99 18971.82 
 17828.38 16690.50 15557.28 14481.18 13404.90 12295.96 11176.17 10225.17 9443.47  8702.97  
 8046.72  7380.20  6810.41  6288.05  5775.98  5236.43  4641.36  4201.66  3821.46  3469.41  
 3130.49  2835.75  2541.01  2246.98  2010.77  1789.93  1603.75  1433.22  1294.61  1169.13  
 1059.43  967.03   894.65   819.84   737.81   661.42   592.75   534.09   485.22   443.73   
 410.24   381.40   358.10   339.76   324.67   311.85   300.70   290.71   282.18   274.48   
 267.48   260.83   254.86   249.03   243.83   238.47   233.10   227.73   221.99   216.76   
 211.41   205.74   200.45   195.21   190.50   186.36   182.22   177.98   174.23   170.51   
 166.52   162.82   159.31   155.75   151.98   148.44   144.63   140.63   136.60   131.94   
 127.10   121.66   116.47   110.93   103.68   95.51    89.34    82.91    73.56    37.13    
 25.21    20.88    18.45    17.10    19.27    21.74    24.37    27.22    30.25    33.52    
 36.89    40.34    44.04    48.32    55.43    54.62    57.04    60.19    63.41    66.47    
 69.85    73.53    77.00    80.05    83.27    87.06    91.18    95.42    99.77    104.33   
 100.08   
88476.06 90990.67 93651.75 96473.05 99346.05 102289.01 105197.90 107297.18 108951.02 109670.99 
 108270.62 106169.37 104372.38 102120.40 99992.71 97532.37 95695.40 94117.41 92367.71 90205.80 
 87962.54 85346.61 82549.07 79525.13 76483.78 73810.78 71307.52 69087.09 67087.24 65159.26 
 63483.67 62193.95 61295.23 60438.74 59512.82 58625.08 57648.45 56543.10 55524.90 54523.94 
 53248.28 51834.39 50372.73 48778.90 47265.27 45822.13 44274.90 42540.65 40777.75 39049.55 
 37349.54 35710.92 34227.80 32873.96 31455.47 30067.38 28822.97 27665.09 26449.76 25121.47 
 23780.65 22427.91 21191.40 19971.54 18747.95 17446.85 16311.65 15135.31 13970.23 12847.90 
 11822.75 10740.44 9689.75  8639.30  7793.95  7103.32  6445.15  5832.45  5244.11  4668.95  
 4099.80  3682.06  3300.54  2948.18  2616.26  2355.58  2103.45  1881.63  1696.23  1535.90  
 1394.65  1265.36  1177.44  1071.64  965.69   864.00   774.96   697.70   632.78   575.28   
 525.25   484.21   449.76   420.45   394.86   371.72   352.42   335.92   321.22   307.77   
 296.36   285.86   276.42   267.71   259.38   252.08   245.21   239.16   233.14   227.42   
 221.91   216.75   211.33   206.00   201.04   196.35   191.57   185.90   179.82   173.64   
 167.66   161.69   155.54   150.03   144.02   138.05   131.65   125.80   118.74   111.67   
 103.26   92.45    80.46    59.83    33.08    24.68    20.58    18.53    17.92    19.69    
 21.81    24.02    26.38    28.90    31.52    34.23    37.11    40.21    43.41    46.79    
 51.97    55.10    55.70    58.57    61.69    64.88    68.07    71.80    74.94    78.12    
 81.17    84.41    87.03    90.01    93.28    96.75    100.30   103.90   107.47   111.22   
 100.08   
88476.06 90045.03 91586.00 93387.07 95590.88 97837.77 100130.87 102715.32 105112.32 107186.31 
 108119.59 108135.82 107845.54 107139.17 105577.06 103298.10 100913.48 98742.69 96670.82 94776.09 
 92697.21 90543.54 88635.83 86564.15 84711.42 82717.53 80893.09 79007.01 77141.77 75394.89 
 73533.26 71669.94 69760.35 67868.10 65791.16 63812.98 61676.13 59866.10 57890.59 55980.22 
 54025.00 52191.97 50486.29 48840.84 47396.55 45932.08 44396.01 43029.16 41575.91 40339.19 
 39098.61 37856.03 36455.94 35128.67 33770.49 32392.56 30981.07 29684.51 28283.52 26887.31 
 25569.30 24320.43 23071.23 21794.31 20470.77 19368.83 18286.09 17309.58 16355.27 15385.58 
 14375.15 13369.95 12441.67 11553.02 10698.21 9793.60  8951.12  8164.63  7437.13  6647.46  
 5914.96  5276.28  4710.89  4208.41  3721.54  3261.61  2918.78  2634.57  2350.88  2117.66  
 1911.79  1734.16  1580.50  1451.17  1321.95  1181.95  1053.54  938.06   840.23   748.62   
 673.68   608.95   550.78   500.81   458.69   423.33   392.10   364.26   340.17   319.27   
 300.33   283.39   268.68   256.44   245.46   234.47   223.51   214.88   206.54   198.71   
 191.07   183.27   175.28   166.87   158.37   149.96   142.40   134.58   126.99   119.19   
 110.52   101.00   89.81    76.49    60.18    45.41    38.17    32.19    21.32    15.55    
 16.91    18.59    20.37    22.25    24.20    26.33    28.53    30.78    33.16    35.66    
 38.40    41.29    44.44    48.48    51.96    52.47    54.64    56.67    59.15    61.71    
 64.33    66.96    69.57    72.27    75.03    77.99    81.15    84.42    87.43    90.28    
 93.13    96.05    98.99    102.00   105.05   107.98   111.01   114.00   116.98   119.86   
 100.08   
88476.06 88983.56 89467.87 90269.70 91314.28 92527.90 94132.68 95729.70 96850.82 97305.87 
 97538.14 97993.02 98465.33 98655.04 98455.07 98616.27 98501.52 98326.40 97845.20 97121.24 
 96325.37 95420.51 94723.71 93629.92 92211.34 90395.01 88579.42 86679.91 84581.31 82457.52 
 80468.88 78361.60 76210.64 74067.04 72101.60 69982.77 67874.28 65587.67 63468.21 61456.36 
 59433.98 57573.91 55661.25 53643.60 51737.25 49812.53 47876.03 46121.47 44445.87 42716.61 
 40856.36 39040.36 37302.14 35479.57 33745.19 32073.55 30336.64 28835.36 27332.19 25941.32 
 24427.35 22912.69 21594.94 20360.35 19025.99 17872.51 16767.14 15704.77 14584.68 13506.71 
 12572.42 11650.88 10740.44 9830.09  9018.11  8256.49  7531.03  6832.96  6150.84  5582.28  
 5048.84  4578.50  4123.60  3724.50  3332.19  3002.65  2698.82  2421.51  2179.74  1955.56  
 1740.95  1547.61  1379.19  1240.82  1119.68  998.66   877.65   772.58   679.61   592.12   
 516.88   455.18   401.59   356.10   314.90   278.81   248.38   221.84   199.05   179.33   
 161.92   146.48   133.88   122.65   111.43   100.21   87.66    73.24    58.36    47.97    
 40.76    23.86    11.85    11.11    11.97    12.94    13.98    15.17    16.34    17.63    
 18.93    20.27    21.74    23.28    24.97    26.64    28.46    30.29    32.14    33.75    
 35.64    37.43    39.32    41.29    43.23    45.26    47.45    50.14    52.08    54.09    
 57.14    59.93    61.58    63.95    66.39    67.65    69.82    72.29    74.71    77.15    
 79.62    82.17    84.70    87.27    89.75    92.31    94.86    97.80    100.67   103.70   
 106.86   109.48   112.34   115.25   117.96   120.55   123.18   125.81   128.37   130.72   
 100.08   
88476.06 87890.36 87467.20 87314.45 87348.99 87677.34 88229.58 88620.53 88024.83 86980.73 
 86720.35 85760.18 84864.04 83952.65 82828.66 82019.14 80743.18 79963.00 78689.04 77849.07 
 76734.27 75495.97 74524.63 73404.13 72117.61 70937.51 69646.32 68269.47 66868.02 65598.30 
 63894.00 62260.42 60671.78 59115.71 57259.54 55464.10 53577.18 51637.15 49949.77 47688.45 
 45871.81 44012.85 41688.97 39623.71 37990.11 36249.32 34479.20 32648.66 30973.81 29116.17 
 27393.65 25795.87 24195.64 22775.49 21149.35 19604.81 18141.37 16819.08 15526.40 14258.08 
 13030.11 11965.88 10914.42 9863.10  8954.11  8107.34  7339.63  6578.53  5897.51  5260.04  
 4657.57  4129.86  3606.79  3144.78  2724.94  2362.81  2032.64  1717.05  1436.55  1184.06  
 976.82   770.08   595.30   447.04   322.58   220.42   139.16   84.59    30.34    7.90     
 6.99     6.99     7.07     7.23     7.45     7.68     7.90     7.97     7.90     8.35     
 8.85     9.40     9.99     10.65    11.40    12.15    12.93    13.75    14.64    15.60    
 16.61    17.65    18.75    19.90    21.19    22.51    23.88    25.28    26.76    28.32    
 29.96    31.59    33.30    35.08    36.92    38.76    40.69    42.69    44.73    46.80    
 48.89    51.01    53.15    55.35    57.58    59.82    62.07    64.26    66.56    68.91    
 71.24    73.61    75.90    78.08    80.30    82.49    84.63    86.85    89.00    91.09    
 93.16    95.20    97.27    99.27    101.22   103.09   104.89   106.59   108.30   109.94   
 111.56   113.09   114.56   115.96   117.26   118.47   119.73   120.95   122.18   123.30   
 124.27   125.10   125.95   126.86   127.23   127.32   127.19   126.80   126.21   125.38   
 100.08   
88476.06 87424.72 86528.42 85915.69 85598.56 85577.49 85892.45 86107.63 84754.16 81135.96 
 78719.46 75863.55 73306.79 71921.58 69087.23 67111.66 64717.21 62566.82 60349.21 57424.65 
 54852.68 52143.05 50311.94 48336.89 45959.80 43515.28 40713.69 38360.70 36354.62 34139.43 
 31862.67 29640.85 27529.00 25095.88 22666.55 20692.51 18972.48 17446.78 15997.32 14654.35 
 13351.40 12271.34 11091.87 9874.07  8860.41  8062.72  7335.47  6419.00  5457.96  4518.62  
 3728.42  3182.76  2637.10  2092.92  1745.87  1473.29  1220.38  1006.95  814.84   665.37   
 537.92   428.59   337.18   279.74   222.29   165.05   133.51   109.15   88.34    72.90    
 62.12    52.07    42.98    38.18    32.60    28.25    24.31    21.00    17.40    13.47    
 12.52    11.82    10.71    9.81     8.94     8.00     7.09     6.18     5.97     6.25     
 6.61     7.01     7.44     7.95     8.48     9.04     9.61     10.23    10.91    11.66    
 12.45    13.25    14.09    14.99    15.98    17.00    18.06    19.15    20.28    21.49    
 22.76    24.17    25.56    27.00    28.53    30.14    31.81    33.57    35.31    37.08    
 38.94    40.95    42.95    44.98    46.99    49.09    51.23    53.48    55.80    58.11    
 60.44    62.89    65.34    67.77    70.32    72.82    75.40    77.92    80.07    82.19    
 84.82    87.67    90.11    92.43    94.01    95.43    97.49    99.65    101.74   103.81   
 105.88   107.89   109.83   111.79   113.64   115.42   117.08   118.55   119.98   121.23   
 122.38   123.42   124.38   125.22   126.04   126.76   127.38   128.06   128.42   128.63   
 128.63   128.59   128.60   127.71   127.29   126.33   124.92   123.19   121.19   118.98   
 100.08   
88476.06 87065.16 85958.92 85221.10 84663.75 80698.89 76048.05 74448.90 71565.72 68558.26 
 64258.89 59888.33 56547.73 52576.87 47945.02 44750.90 40807.87 37114.62 33144.29 28553.57 
 26107.00 24147.12 22517.37 21055.75 19583.95 18236.38 16866.07 15727.38 14451.86 12521.80 
 10815.75 9112.55  7563.06  6298.63  5156.97  4513.10  3532.28  2846.35  2195.44  1504.54  
 1179.70  859.48   539.27   409.24   320.36   261.08   216.05   175.99   148.46   128.62   
 108.85   89.08    73.73    60.51    52.12    46.02    41.13    36.64    32.38    29.82    
 27.34    25.25    23.89    22.41    21.06    19.67    18.10    16.61    14.79    12.00    
 10.75    10.17    9.70     9.39     9.03     8.67     8.37     8.06     7.76     7.48     
 7.21     6.95     6.73     6.55     6.42     6.34     6.34     6.58     6.95     7.38     
 7.82     8.32     8.82     9.39     10.00    10.68    11.42    12.21    13.02    13.86    
 14.80    15.78    16.79    17.83    18.94    20.15    21.39    22.67    23.99    25.42    
 26.89    28.38    29.88    31.52    33.25    35.01    36.80    38.60    40.54    42.55    
 44.55    46.62    48.70    50.90    53.11    55.32    57.57    59.90    62.30    64.71    
 67.16    69.59    72.04    74.56    77.19    79.88    82.57    85.20    87.82    90.42    
 93.09    95.87    98.59    101.30   103.98   106.64   109.25   111.92   114.64   117.24   
 119.55   121.71   123.78   125.78   127.66   129.26   130.72   132.07   133.25   134.28   
 135.17   135.96   136.63   137.26   137.64   137.69   137.61   137.39   136.96   136.19   
 135.12   133.80   132.35   130.63   128.07   125.67   123.12   120.18   116.75   112.97   
 100.08   
88476.06 86730.56 85488.69 84511.80 77875.41 74174.00 69661.08 66048.59 60066.66 56566.61 
 50414.88 46125.67 40670.21 36150.04 29561.12 26809.13 24932.03 23057.09 21407.24 20032.78 
 18645.08 17427.64 13451.76 11521.78 9636.13  7573.87  6290.58  4766.83  3827.97  2560.41  
 1297.67  689.79   434.57   344.76   254.96   165.57   124.29   97.90    78.59    60.06    
 48.40    41.13    35.50    31.75    29.02    26.76    24.93    23.72    22.48    21.43    
 20.63    20.02    19.28    18.35    17.61    16.36    15.33    14.71    14.45    13.99    
 13.25    11.82    10.35    9.60     9.21     8.88     8.60     8.34     8.06     7.82     
 7.60     7.39     7.19     7.01     6.80     6.61     6.43     6.30     6.19     6.10     
 6.04     6.02     6.02     6.02     6.06     6.16     6.34     6.61     6.93     7.30     
 7.69     8.12     8.61     9.12     9.68     10.24    10.86    11.52    12.22    12.99    
 13.79    14.60    15.48    16.47    17.49    18.51    19.62    20.78    21.98    23.20    
 24.52    25.94    27.40    28.89    30.41    32.01    33.71    35.47    37.21    38.97    
 40.80    42.74    44.75    46.75    48.79    50.88    53.08    55.36    57.78    60.27    
 62.83    65.44    68.17    70.95    73.77    76.70    79.75    82.82    85.89    89.06    
 92.35    95.65    98.92    102.27   105.62   109.06   112.38   115.65   118.79   121.85   
 124.88   127.72   130.43   133.14   135.73   138.25   140.59   142.49   144.22   145.60   
 146.63   147.35   147.76   148.10   148.17   147.98   147.53   146.86   145.78   144.33   
 142.42   140.15   137.48   133.87   129.90   125.95   121.79   117.64   113.24   108.24   
 100.08   
88476.06 86604.31 85417.06 81126.26 74862.69 69461.80 63843.71 57232.89 51855.41 45730.34 
 39496.34 33536.84 28016.09 25821.95 23991.94 22453.38 20890.07 19418.00 15265.07 12807.23 
 10656.97 8510.14  6363.32  4574.44  3149.40  1404.88  824.78   256.92   154.94   127.27   
 100.46   73.65    58.34    48.30    45.84    39.25    32.96    31.95    27.81    25.31    
 23.90    21.04    20.32    19.68    17.87    17.33    15.46    14.00    13.04    12.06    
 11.40    10.91    10.44    9.99     9.43     8.73     7.71     6.97     6.62     6.42     
 6.27     6.15     6.07     5.97     5.86     5.77     5.67     5.60     5.49     5.40     
 5.31     5.23     5.16     5.11     5.06     5.01     4.99     4.97     4.96     4.96     
 4.96     4.98     5.04     5.14     5.27     5.44     5.64     5.88     6.15     6.44     
 6.77     7.12     7.51     7.94     8.44     8.93     9.50     10.11    10.76    11.47    
 12.24    13.05    13.90    14.81    15.81    16.81    17.90    19.01    20.20    21.48    
 22.80    24.16    25.56    27.01    28.53    30.20    31.86    33.55    35.32    37.22    
 39.14    41.06    42.99    44.96    46.95    49.04    51.12    53.29    55.50    57.76    
 60.08    62.42    64.84    67.36    70.04    72.91    75.85    78.88    81.98    85.22    
 88.59    92.05    95.59    99.20    102.88   106.69   110.61   114.59   118.52   122.45   
 126.35   129.98   133.39   136.57   139.64   142.46   144.91   147.14   149.41   151.53   
 153.28   154.66   155.67   156.23   156.32   155.86   154.96   153.63   152.07   150.17   
 147.72   144.51   141.01   136.96   132.44   127.39   122.23   116.89   111.64   105.77   
 100.08   
88476.06 86364.52 85117.71 80816.74 74035.65 67869.69 60348.57 55282.13 46903.01 40423.70 
 33765.38 27664.56 25432.87 23206.22 21558.28 20079.25 18350.67 13876.24 11033.07 8289.10  
 6821.27  4638.88  2777.16  927.34   490.45   57.25    38.28    23.64    18.39    15.33    
 13.79    12.40    11.51    10.91    10.27    9.88     9.51     9.19     8.71     8.36     
 8.07     7.75     7.37     7.05     6.83     6.55     6.37     6.22     6.07     5.95     
 5.75     5.49     5.24     4.98     4.85     4.80     4.77     4.77     4.76     4.71     
 4.62     4.47     4.34     4.22     4.08     3.98     3.90     3.82     3.74     3.67     
 3.60     3.58     3.58     3.57     3.57     3.59     3.62     3.67     3.72     3.78     
 3.85     3.92     4.02     4.13     4.26     4.41     4.59     4.79     5.01     5.25     
 5.51     5.79     6.09     6.45     6.83     7.23     7.70     8.20     8.74     9.35     
 9.99     10.66    11.36    12.12    12.95    13.80    14.71    15.71    16.72    17.77    
 18.86    20.06    21.28    22.50    23.80    25.19    26.69    28.23    29.79    31.40    
 33.13    34.99    36.95    38.98    40.99    43.09    45.29    47.59    49.94    52.30    
 54.70    57.18    59.74    62.32    64.88    67.54    70.36    73.16    76.03    79.07    
 82.33    85.71    89.25    92.90    96.66    100.67   104.64   108.82   113.10   117.46   
 121.98   126.34   130.50   134.68   138.58   142.30   145.71   148.68   151.52   153.96   
 156.12   158.00   159.50   160.48   160.84   160.62   159.84   158.48   156.53   154.17   
 151.50   148.30   144.52   140.01   135.13   129.43   123.44   117.11   111.17   105.23   
 100.08   
88476.06 86158.12 84976.54 80284.08 73389.95 67840.48 59790.35 53682.32 46336.58 39521.66 
 31711.68 27160.75 24817.64 22760.25 21046.50 19498.89 15142.10 12631.16 9951.51  7269.45  
 4997.81  3515.22  1876.46  1406.78  950.26   493.74   37.21    22.01    17.34    14.47    
 12.68    11.31    10.17    9.21     8.60     8.10     7.64     7.23     6.79     6.44     
 6.14     5.89     5.69     5.58     5.44     5.35     5.19     5.09     4.98     4.86     
 4.66     4.50     4.43     4.41     4.38     4.27     4.11     3.92     3.78     3.70     
 3.61     3.57     3.55     3.51     3.49     3.48     3.48     3.48     3.45     3.45     
 3.45     3.44     3.44     3.44     3.44     3.44     3.44     3.49     3.56     3.62     
 3.72     3.83     3.95     4.07     4.21     4.37     4.56     4.77     5.01     5.28     
 5.57     5.89     6.23     6.59     6.99     7.42     7.87     8.37     8.88     9.48     
 10.12    10.80    11.53    12.31    13.14    13.98    14.89    15.84    16.83    17.85    
 18.95    20.10    21.29    22.49    23.75    25.07    26.40    27.77    29.25    30.75    
 32.39    34.11    35.98    37.90    39.87    41.92    44.16    46.45    48.82    51.23    
 53.72    56.29    58.94    61.62    64.30    67.02    69.81    72.70    75.62    78.61    
 81.71    84.92    88.30    91.91    95.67    99.52    103.45   107.42   111.66   116.09   
 120.54   124.98   129.39   133.61   137.86   141.75   145.36   148.57   151.32   153.73   
 155.72   157.48   158.92   159.78   159.97   159.59   158.56   156.89   154.73   152.02   
 148.95   145.21   141.28   137.15   132.91   128.00   122.76   117.29   111.97   106.57   
 100.08   
