IESNA:LM-63-2002
[TEST] 1
[TESTLAB] AOK
[TESTDATE] 2022-05-30
[ISSUEDATE] 2022-05-31 09:06:14
[NEARFIELD] 
[LAMPPOSITION] 0,0
[OTHER] EVERFINE GO-2000A_V1 SYSTEM
[MANUFAC] AOK
[LUMCAT] A
[LUMINAIRE] AOK-800WiSF-NV-S35-00-5070-15D-P
[LAMPCAT] B
[LAMP] 5050
[BALLAST] E
[BALLASTCAT] F
[OTHER] 
[OTHER] Gamma(deg)    Fz(lm)      Ft(lm)     %Lum    %Lamp
[OTHER]   0- 10     47257.30    47257.30    46.23    46.23
[OTHER]  10- 20     26934.84    74192.14    72.59    72.59
[OTHER]  20- 30      9908.87    84101.01    82.28    82.28
[OTHER]  30- 40      5203.19    89304.19    87.37    87.37
[OTHER]  40- 50      4242.08    93546.27    91.52    91.52
[OTHER]  50- 60      3473.33    97019.60    94.92    94.92
[OTHER]  60- 70      2493.47    99513.08    97.36    97.36
[OTHER]  70- 80      1340.63   100853.70    98.67    98.67
[OTHER]  80- 90       546.13   101399.83    99.20    99.20
[OTHER]  90-100       242.79   101642.63    99.44    99.44
[OTHER] 100-110       144.13   101786.76    99.58    99.58
[OTHER] 110-120       108.03   101894.79    99.69    99.69
[OTHER] 120-130        80.95   101975.74    99.77    99.77
[OTHER] 130-140        55.21   102030.94    99.82    99.82
[OTHER] 140-150        39.98   102070.92    99.86    99.86
[OTHER] 150-160        55.49   102126.41    99.91    99.91
[OTHER] 160-170        65.17   102191.58    99.98    99.98
[OTHER] 170-180        21.86   102213.44   100.00   100.00
[OTHER] 
TILT=NONE
1 1.0221e+005 1 181 25 1 2 0.150 0.200 0.000
1.000 1 786.724
0.0    1.0    2.0    3.0    4.0    5.0    6.0    7.0    8.0    9.0    
 10.0   11.0   12.0   13.0   14.0   15.0   16.0   17.0   18.0   19.0   
 20.0   21.0   22.0   23.0   24.0   25.0   26.0   27.0   28.0   29.0   
 30.0   31.0   32.0   33.0   34.0   35.0   36.0   37.0   38.0   39.0   
 40.0   41.0   42.0   43.0   44.0   45.0   46.0   47.0   48.0   49.0   
 50.0   51.0   52.0   53.0   54.0   55.0   56.0   57.0   58.0   59.0   
 60.0   61.0   62.0   63.0   64.0   65.0   66.0   67.0   68.0   69.0   
 70.0   71.0   72.0   73.0   74.0   75.0   76.0   77.0   78.0   79.0   
 80.0   81.0   82.0   83.0   84.0   85.0   86.0   87.0   88.0   89.0   
 90.0   91.0   92.0   93.0   94.0   95.0   96.0   97.0   98.0   99.0   
 100.0  101.0  102.0  103.0  104.0  105.0  106.0  107.0  108.0  109.0  
 110.0  111.0  112.0  113.0  114.0  115.0  116.0  117.0  118.0  119.0  
 120.0  121.0  122.0  123.0  124.0  125.0  126.0  127.0  128.0  129.0  
 130.0  131.0  132.0  133.0  134.0  135.0  136.0  137.0  138.0  139.0  
 140.0  141.0  142.0  143.0  144.0  145.0  146.0  147.0  148.0  149.0  
 150.0  151.0  152.0  153.0  154.0  155.0  156.0  157.0  158.0  159.0  
 160.0  161.0  162.0  163.0  164.0  165.0  166.0  167.0  168.0  169.0  
 170.0  171.0  172.0  173.0  174.0  175.0  176.0  177.0  178.0  179.0  
 180.0  
0.0    15.0   30.0   45.0   60.0   75.0   90.0   105.0  120.0  135.0  
 150.0  165.0  180.0  195.0  210.0  225.0  240.0  255.0  270.0  285.0  
 300.0  315.0  330.0  345.0  360.0  
738174.50 740215.69 739842.15 736756.13 706649.32 643900.95 589092.40 518967.59 444469.57 347428.79 
 259947.78 177990.00 112481.82 89681.49 67345.58 53906.34 43881.13 35418.85 23744.58 17205.51 
 11652.36 8424.14  5223.06  2792.73  1426.23  71.31    44.72    32.06    24.12    21.53    
 19.48    17.88    16.49    14.81    13.18    11.51    10.25    9.14     8.63     8.21     
 8.00     7.78     7.47     6.99     6.79     6.67     6.52     6.36     6.25     5.84     
 5.36     4.95     4.64     4.48     4.33     4.21     4.17     4.13     4.09     4.03     
 3.98     3.96     3.92     3.90     3.90     3.89     3.88     3.88     3.88     3.87     
 3.87     3.86     3.86     3.85     3.85     3.84     3.82     3.79     3.77     3.76     
 3.76     3.74     3.78     3.82     3.89     3.96     4.08     4.18     4.29     4.42     
 4.57     4.72     4.90     5.09     5.30     5.50     5.72     5.94     6.18     6.42     
 6.64     6.90     7.15     7.45     7.75     8.08     8.41     8.77     9.14     9.51     
 9.90     10.31    10.75    11.21    11.67    12.16    12.66    13.16    13.71    14.29    
 14.88    15.50    16.15    16.82    17.49    18.17    18.92    19.71    20.56    21.46    
 22.43    23.49    24.71    26.07    27.60    29.26    31.23    33.45    36.00    38.83    
 41.98    45.43    49.35    53.94    59.00    64.68    70.98    78.17    86.48    96.81    
 109.17   123.47   139.59   157.36   176.44   198.06   221.29   245.28   269.28   291.60   
 314.45   335.55   354.59   371.26   385.01   393.96   398.15   397.85   393.41   385.70   
 375.15   363.45   350.09   336.07   321.71   306.13   288.91   270.15   250.27   229.16   
 207.07   
738174.50 741670.24 741373.49 739211.63 732506.92 677295.31 613116.16 549490.28 465848.60 382245.55 
 302236.60 222227.66 142465.19 91984.95 71943.00 57375.30 46592.68 38554.59 31159.39 23764.19 
 16389.70 11723.22 8882.17  5333.38  3223.28  1128.88  792.89   456.91   123.98   107.10   
 76.03    58.82    65.27    40.17    28.24    22.41    19.74    17.88    16.90    16.29    
 15.56    14.39    13.21    11.95    10.88    10.03    9.26     8.65     8.20     7.87     
 7.44     6.94     6.33     5.58     5.18     4.91     4.86     5.02     5.05     5.04     
 4.91     4.80     4.71     4.63     4.51     4.46     4.42     4.38     4.30     4.20     
 4.10     4.00     3.89     3.81     3.72     3.64     3.56     3.49     3.44     3.37     
 3.35     3.35     3.36     3.41     3.49     3.57     3.66     3.76     3.86     3.99     
 4.13     4.29     4.46     4.64     4.84     5.06     5.29     5.51     5.76     6.01     
 6.27     6.54     6.84     7.12     7.44     7.75     8.09     8.43     8.79     9.16     
 9.54     9.91     10.34    10.78    11.22    11.72    12.22    12.72    13.23    13.75    
 14.32    14.91    15.54    16.16    16.81    17.50    18.20    18.97    19.79    20.66    
 21.64    22.69    23.87    25.17    26.66    28.32    30.25    32.40    34.83    37.59    
 40.73    44.22    48.08    52.39    57.23    62.73    68.89    76.06    84.30    94.06    
 105.56   120.17   134.81   152.62   172.17   193.39   216.04   238.92   262.83   285.91   
 308.60   330.23   350.58   368.82   382.95   393.16   398.59   399.48   396.30   389.50   
 379.96   368.66   356.28   342.85   328.67   313.18   295.94   277.65   257.32   236.88   
 207.07   
738174.50 741476.66 740835.58 737765.50 729656.77 710048.24 637314.43 559302.97 474720.74 378975.51 
 295575.36 213394.03 155833.92 122164.00 88751.99 55339.97 45029.86 37803.15 32378.23 27828.58 
 23932.41 17447.29 13270.87 10102.79 6945.73  4774.40  3228.64  1917.41  1356.08  804.32   
 252.56   161.47   134.86   111.31   87.78    70.77    61.72    50.70    39.49    33.02    
 28.20    24.35    21.68    19.70    18.48    17.32    16.28    15.34    14.46    13.65    
 13.17    12.65    12.07    11.43    10.56    9.40     8.42     7.68     7.14     6.95     
 6.74     6.51     6.30     6.12     5.98     5.83     5.69     5.57     5.45     5.32     
 5.17     4.99     4.80     4.62     4.45     4.26     4.07     3.88     3.70     3.56     
 3.44     3.34     3.30     3.30     3.37     3.47     3.58     3.70     3.84     3.98     
 4.15     4.33     4.51     4.72     4.94     5.16     5.41     5.65     5.91     6.19     
 6.48     6.77     7.07     7.39     7.70     8.04     8.39     8.74     9.12     9.51     
 9.89     10.31    10.74    11.18    11.62    12.09    12.57    13.04    13.54    14.03    
 14.55    15.10    15.68    16.29    16.93    17.61    18.33    19.11    19.96    20.89    
 21.88    22.94    24.19    25.58    27.10    28.74    30.63    32.77    35.14    37.80    
 40.69    43.99    47.66    51.84    56.49    61.89    68.15    75.30    83.70    93.81    
 105.64   119.26   134.74   152.05   172.15   193.50   215.91   239.93   263.96   288.21   
 311.63   333.35   353.00   370.22   383.51   392.81   398.16   399.26   396.54   390.27   
 381.61   370.94   359.11   345.75   331.34   315.27   297.66   278.43   257.54   236.36   
 207.07   
738174.50 741128.14 740605.32 735595.82 724803.02 701965.83 659645.20 580663.53 480402.51 390731.91 
 314128.19 237524.43 161236.72 122183.25 86794.61 68205.28 52306.35 42736.79 31695.89 27913.61 
 24131.33 20358.51 17776.09 14989.42 12386.12 10096.86 7396.91  5683.80  4396.22  3357.26  
 2635.02  1914.17  1375.44  882.31   436.55   336.70   236.86   137.61   104.73   85.96    
 72.91    61.68    53.45    46.76    40.88    36.21    32.28    28.53    26.01    23.94    
 21.73    20.53    19.65    19.12    18.21    17.22    16.33    15.59    14.99    14.44    
 13.56    12.18    9.94     8.39     7.90     7.59     7.32     7.08     6.89     6.71     
 6.50     6.29     6.07     5.83     5.57     5.28     4.97     4.63     4.28     3.94     
 3.63     3.37     3.18     3.12     3.15     3.24     3.36     3.50     3.64     3.79     
 3.96     4.15     4.35     4.56     4.79     5.03     5.28     5.55     5.82     6.11     
 6.41     6.71     7.03     7.36     7.70     8.06     8.42     8.79     9.17     9.54     
 9.93     10.34    10.76    11.17    11.61    12.08    12.57    13.07    13.57    14.08    
 14.60    15.17    15.75    16.35    16.95    17.60    18.28    19.02    19.82    20.68    
 21.62    22.66    23.80    25.03    26.36    27.91    29.63    31.51    33.59    35.91    
 38.65    41.67    45.15    49.11    53.67    59.15    65.44    72.82    81.54    91.90    
 104.07   119.09   134.15   152.54   172.23   193.57   216.57   239.92   264.40   288.13   
 310.90   332.37   351.39   368.01   381.03   390.39   395.99   397.76   395.76   390.41   
 382.26   372.31   360.30   347.22   331.90   314.17   295.21   275.47   254.77   233.96   
 207.07   
738174.50 739554.21 737052.51 728796.80 709092.78 670831.02 612385.77 543997.30 460172.73 373488.73 
 287610.89 210883.29 156138.71 119888.53 96281.37 72807.00 57393.43 46656.84 40070.64 32881.93 
 26968.80 23028.79 18649.11 15524.71 12171.07 10307.06 8459.07  7339.86  6569.93  5911.00  
 5427.11  4968.80  4520.48  4089.65  3540.54  3036.61  2527.93  2078.28  1688.19  1388.50  
 1136.39  884.86   633.34   438.06   291.68   206.62   152.62   129.43   106.57   83.71    
 71.05    61.75    56.12    51.68    45.49    40.99    37.34    33.96    30.60    27.79    
 26.13    24.45    22.89    21.77    20.62    19.56    18.40    17.00    14.87    11.19    
 9.71     9.03     8.59     8.27     7.97     7.57     7.18     6.74     6.26     5.73     
 5.12     4.51     3.98     3.57     3.48     3.51     3.64     3.77     3.92     4.07     
 4.25     4.44     4.63     4.85     5.09     5.32     5.57     5.83     6.10     6.40     
 6.69     6.99     7.31     7.64     7.97     8.32     8.68     9.05     9.44     9.83     
 10.23    10.64    11.07    11.51    11.97    12.44    12.92    13.40    13.88    14.38    
 14.88    15.40    15.96    16.53    17.12    17.72    18.38    19.09    19.85    20.63    
 21.48    22.42    23.45    24.60    25.90    27.32    28.91    30.73    32.84    35.19    
 37.91    40.97    44.58    48.82    53.81    59.68    66.70    74.91    84.65    96.33    
 109.75   124.79   141.45   159.95   180.68   202.50   224.93   248.41   271.91   294.90   
 316.10   335.23   352.07   366.93   378.68   386.83   391.79   392.64   390.34   384.78   
 376.58   365.38   352.19   337.50   321.32   303.50   285.50   267.01   248.04   229.20   
 207.07   
738174.50 738419.90 734189.89 722538.76 696927.93 648373.20 580542.20 503764.59 417532.40 331579.84 
 265431.00 199459.07 155017.68 119951.81 96198.86 78595.48 64629.97 53840.65 45688.67 39519.61 
 34084.84 29300.81 25151.80 21011.89 17957.84 15599.34 13719.47 12271.08 11161.95 10215.67 
 9364.58  8567.91  7905.24  7322.95  6778.41  6277.41  5831.95  5466.26  5119.21  4769.12  
 4440.33  4132.03  3848.25  3582.34  3315.39  3069.60  2827.89  2586.18  2344.60  2116.90  
 1889.52  1652.70  1408.16  1172.56  943.28   732.42   558.62   437.36   346.65   294.94   
 243.23   191.68   156.05   126.38   103.47   86.23    72.64    61.27    52.13    43.76    
 37.36    32.18    28.02    25.06    22.44    20.35    18.01    15.21    11.19    9.83     
 9.07     8.08     6.90     5.33     3.84     3.19     3.23     3.32     3.43     3.54     
 3.67     3.81     3.98     4.17     4.37     4.57     4.81     5.05     5.30     5.57     
 5.81     6.08     6.36     6.66     6.97     7.30     7.63     7.98     8.34     8.73     
 9.13     9.54     9.97     10.42    10.87    11.32    11.80    12.30    12.80    13.30    
 13.82    14.36    14.93    15.50    16.09    16.75    17.44    18.13    18.90    19.72    
 20.61    21.54    22.57    23.66    24.84    26.19    27.81    29.55    31.50    33.80    
 36.34    39.16    42.78    47.03    52.14    58.39    65.77    74.64    85.20    97.51    
 111.50   128.31   145.54   165.09   185.64   207.13   229.71   251.72   274.25   295.46   
 315.60   333.71   349.61   363.30   374.17   382.33   387.07   388.72   387.20   382.72   
 375.91   366.44   354.20   339.46   324.06   307.78   290.70   273.37   255.24   237.81   
 207.07   
738174.50 738212.98 734647.46 725677.04 703779.00 658450.72 590253.61 512816.05 424424.97 336548.54 
 268530.50 200768.57 156302.08 121687.52 96639.88 79054.68 65672.25 54844.26 46271.64 39953.34 
 34721.10 30339.87 26883.76 23427.66 19984.71 17692.74 15884.31 14488.59 13420.31 12539.43 
 11742.30 11029.30 10412.87 9820.19  9307.07  8852.15  8450.85  8082.58  7739.16  7430.69  
 7144.24  6885.12  6650.01  6398.88  6163.31  5906.82  5649.88  5387.76  5121.51  4872.52  
 4649.75  4443.72  4253.55  4071.42  3894.45  3730.88  3564.55  3399.00  3231.85  3063.10  
 2892.88  2731.30  2567.22  2403.29  2250.88  2095.42  1940.66  1791.68  1642.63  1498.07  
 1353.21  1219.06  1096.24  974.45   859.34   746.70   641.99   548.85   465.00   391.28   
 322.60   268.64   214.68   160.91   123.18   88.74    64.39    38.52    13.80    5.31     
 3.40     2.81     2.62     2.44     2.43     2.38     2.30     1.66     1.67     1.69     
 1.70     1.71     1.73     1.73     1.80     1.87     1.97     2.05     2.05     2.14     
 2.26     2.24     2.33     2.49     2.52     2.62     2.75     2.92     3.14     3.22     
 3.31     3.39     3.49     3.60     3.72     3.86     4.00     4.17     4.33     4.50     
 4.68     4.88     5.12     5.35     5.59     5.90     6.23     6.63     7.11     7.66     
 8.28     9.01     9.93     11.08    12.40    14.01    15.87    17.97    20.41    23.06    
 25.95    29.02    32.32    35.88    39.74    43.85    48.20    52.74    57.56    62.40    
 67.27    72.27    77.32    82.41    87.57    92.91    98.42    104.12   109.79   116.21   
 121.99   128.23   133.84   139.26   146.11   154.09   163.24   173.28   184.60   197.28   
 207.07   
738174.50 736938.65 731644.68 719075.37 691177.53 640233.00 564523.60 479075.26 390682.12 309182.77 
 241395.52 189180.99 150559.71 121483.29 101443.42 81474.10 68194.23 58288.96 50330.05 43873.84 
 38275.49 33228.06 28670.14 24734.16 21350.87 18754.37 16852.69 15527.36 14530.58 13751.80 
 13100.08 12492.52 11947.88 11531.91 11117.06 10702.20 10383.29 10099.65 9831.68  9600.30  
 9387.09  9191.87  9015.84  8821.75  8593.44  8363.23  8092.98  7828.34  7579.22  7338.15  
 7103.33  6886.53  6687.32  6483.13  6287.60  6090.97  5905.03  5712.43  5520.58  5317.23  
 5115.78  4922.00  4733.70  4543.47  4338.97  4137.50  3944.77  3762.43  3574.23  3374.48  
 3183.76  2999.45  2814.12  2624.71  2444.36  2271.23  2105.30  1942.20  1790.23  1642.71  
 1507.11  1388.28  1271.95  1165.71  1059.56  953.40   862.58   781.68   711.23   649.83   
 598.20   546.82   498.30   453.09   410.47   370.97   336.66   305.61   278.33   252.67   
 230.78   207.85   190.93   175.30   160.19   145.86   132.89   120.56   108.23   96.81    
 86.15    76.65    68.37    60.20    52.47    45.12    38.07    31.50    25.64    21.43    
 15.63    6.54     3.39     3.12     3.18     3.30     3.46     3.59     3.76     3.92     
 4.14     4.63     5.07     5.53     5.98     6.94     7.47     7.42     7.20     7.33     
 7.87     8.48     9.24     10.13    11.87    13.28    14.82    16.71    19.03    21.49    
 24.28    27.32    30.45    33.02    36.63    40.55    44.77    49.07    53.41    57.84    
 62.28    66.82    71.30    75.93    80.61    85.47    90.40    95.37    100.47   106.02   
 110.70   116.30   122.22   128.73   136.11   144.48   153.80   164.83   177.26   191.62   
 207.07   
738174.50 736468.38 730691.84 717662.86 689440.08 639066.99 566625.84 478852.38 392320.90 312835.74 
 255757.83 198896.68 161746.28 132497.06 110127.39 93470.47 80660.81 70208.90 61641.46 54269.97 
 47818.95 41917.57 36590.46 31941.67 27842.69 24663.18 21494.78 19260.61 17545.82 16196.02 
 15144.43 14277.14 13563.04 13013.51 12581.19 12212.83 11895.50 11606.97 11342.58 11078.45 
 10835.08 10606.25 10384.75 10165.88 9970.03  9777.43  9555.20  9305.72  9029.27  8748.83  
 8499.67  8283.24  8057.79  7838.02  7612.94  7392.75  7184.89  6981.42  6779.71  6559.31  
 6331.89  6079.96  5831.23  5585.47  5354.86  5113.77  4879.52  4653.50  4418.69  4178.10  
 3916.68  3669.18  3427.06  3203.61  2986.15  2773.16  2560.18  2347.47  2160.95  1983.42  
 1808.77  1650.75  1508.42  1382.96  1268.65  1163.62  1067.19  983.67   910.47   844.19   
 791.12   735.66   677.18   622.21   572.44   530.01   491.59   457.39   426.71   399.26   
 373.35   352.81   335.50   320.16   306.03   293.63   282.38   272.30   262.87   254.88   
 247.86   241.48   235.11   228.73   222.14   215.44   208.94   202.11   195.05   188.27   
 181.26   173.70   166.21   158.31   149.85   141.59   132.71   123.34   114.68   104.39   
 92.53    78.75    59.05    36.26    21.14    15.27    14.30    11.36    5.26     4.59     
 4.95     5.42     6.01     6.78     7.77     9.05     10.55    12.39    14.54    17.31    
 20.44    23.67    27.72    37.77    43.21    36.74    40.93    45.34    49.92    54.65    
 59.41    64.07    68.57    73.08    77.37    81.66    85.79    89.84    93.83    98.00    
 101.93   106.55   111.91   118.15   125.16   133.23   142.94   154.17   166.42   181.14   
 207.07   
738174.50 734877.29 727262.69 710765.35 677795.98 622819.76 547321.98 460710.25 376113.98 300767.13 
 241257.49 196269.20 162724.36 137333.52 117395.43 103332.55 89314.15 79706.22 71781.61 64147.50 
 57520.59 51413.19 45557.69 40167.76 35473.08 31373.44 28036.99 25178.01 22753.95 20608.75 
 18807.53 17178.28 15852.81 14844.15 14117.04 13561.21 13093.20 12676.97 12297.55 11960.50 
 11676.51 11393.04 11109.56 10877.84 10663.31 10436.18 10188.63 9945.30  9739.85  9508.00  
 9242.79  8967.87  8710.75  8462.55  8234.33  7998.33  7755.10  7498.66  7223.40  6935.24  
 6651.76  6384.59  6118.79  5845.46  5575.63  5317.77  5065.59  4812.27  4551.77  4276.87  
 3997.48  3742.75  3498.84  3250.37  3005.44  2772.07  2547.16  2317.96  2116.17  1928.56  
 1758.59  1602.71  1450.52  1312.29  1197.23  1101.56  1006.08  924.39   852.08   796.09   
 745.90   688.30   631.02   582.54   539.84   502.98   471.42   445.73   423.05   403.10   
 385.92   371.93   359.68   348.78   338.92   329.45   321.20   313.80   306.97   300.31   
 293.96   288.33   282.37   277.17   271.94   266.59   261.70   257.30   253.02   248.52   
 244.71   240.78   236.68   232.70   228.21   223.45   217.89   212.57   207.39   201.95   
 196.80   190.50   182.01   173.71   165.45   157.24   148.47   139.09   129.16   117.52   
 105.88   91.94    71.14    25.67    12.99    10.96    10.94    10.90    12.69    15.09    
 17.79    20.81    24.16    27.88    31.82    35.97    40.65    45.58    50.86    56.95    
 73.12    69.18    72.45    78.44    84.15    89.64    94.35    98.51    102.13   105.27   
 107.86   110.24   113.18   116.72   121.67   128.57   137.20   148.34   161.52   177.17   
 207.07   
738174.50 734156.31 725917.53 709083.31 675610.93 619447.07 543200.04 457785.70 373279.04 301550.60 
 251905.86 202448.38 170027.28 145113.36 125380.34 109880.36 97426.98 87529.20 78862.54 71158.28 
 63949.27 57273.52 50891.59 45171.39 40013.67 35659.48 31915.92 28731.24 26355.38 23979.51 
 21609.92 19860.97 18447.62 17369.48 16516.09 15761.01 15044.40 14352.97 13741.19 13239.03 
 12795.21 12408.02 12018.21 11668.62 11358.82 11083.09 10829.51 10564.90 10308.44 10034.96 
 9735.82  9450.63  9168.43  8871.15  8575.48  8281.21  8007.42  7749.65  7500.57  7247.21  
 7001.35  6750.17  6487.01  6219.30  5937.50  5640.01  5323.76  5004.32  4683.36  4369.42  
 4077.86  3795.49  3516.98  3261.81  2997.50  2765.14  2532.77  2300.68  2094.49  1901.79  
 1716.81  1548.27  1390.18  1258.48  1145.23  1044.02  957.28   878.67   813.27   760.72   
 715.10   664.28   608.18   558.88   516.42   483.65   456.15   432.03   411.92   393.73   
 379.17   368.18   358.89   350.92   343.58   337.56   331.58   326.01   321.11   316.27   
 311.21   306.62   302.25   298.00   293.45   288.82   284.31   279.24   274.44   270.02   
 265.75   261.34   257.69   253.58   249.68   245.43   240.48   235.53   230.59   226.18   
 221.72   217.22   212.67   208.04   203.12   197.86   192.78   186.87   179.90   173.02   
 164.73   156.16   146.92   134.63   120.47   107.90   100.98   91.82    46.80    22.79    
 24.19    23.67    24.17    26.91    31.11    35.66    40.60    45.91    51.77    58.07    
 64.83    71.87    79.23    95.81    98.89    95.99    101.50   106.62   110.82   114.15   
 116.89   119.07   120.62   122.25   124.94   129.59   136.93   147.11   160.58   176.95   
 207.07   
738174.50 732632.30 721761.44 701955.23 663144.05 599216.03 513908.39 426221.88 346919.79 281787.52 
 231549.51 195027.10 167272.31 145516.40 127721.07 115825.16 103974.01 92122.85 84109.61 76843.22 
 69918.75 63285.35 56709.75 50560.89 44976.21 40142.42 36100.57 32658.82 29752.04 27292.02 
 25151.72 23254.97 21703.63 20455.23 19339.70 18316.07 17289.23 16297.91 15392.30 14634.60 
 13980.86 13387.26 12932.24 12549.51 12163.48 11760.63 11357.64 10954.65 10601.21 10268.59 
 9951.00  9615.08  9296.96  8981.02  8679.48  8409.27  8158.14  7881.97  7579.57  7250.53  
 6937.31  6631.84  6348.78  6049.15  5753.76  5467.21  5189.93  4918.34  4647.19  4366.84  
 4085.62  3801.19  3509.52  3228.19  2964.14  2715.05  2481.29  2244.88  2031.63  1835.40  
 1661.31  1498.22  1362.84  1239.62  1144.45  1049.57  954.68   877.88   818.48   768.61   
 719.99   660.57   604.41   554.67   510.92   476.11   449.58   427.81   409.54   392.54   
 378.18   368.19   360.49   354.00   348.57   343.78   338.76   334.62   330.93   327.66   
 323.20   319.29   315.59   311.73   307.99   304.30   300.91   297.01   292.76   288.42   
 284.37   280.20   276.16   272.51   268.77   265.17   261.52   257.57   253.37   249.33   
 244.86   240.30   235.43   230.70   226.01   216.75   205.86   200.73   196.34   191.95   
 185.64   179.21   173.68   168.77   163.77   158.39   147.28   140.68   135.67   128.48   
 78.82    28.84    28.50    31.24    34.24    38.18    43.70    49.59    55.97    62.92    
 70.37    78.10    85.70    93.19    105.15   129.17   107.17   111.47   115.37   118.42   
 120.71   122.50   124.05   125.08   126.99   131.33   138.85   149.28   162.89   180.61   
 207.07   
738174.50 732049.11 720889.57 700981.02 661915.21 595035.05 508923.55 421118.53 342969.73 293698.08 
 244426.47 195397.68 168415.54 146968.44 129286.40 115151.57 103504.78 94145.71 86186.50 79230.18 
 72574.81 66295.46 60103.12 54291.74 49025.54 44511.08 40530.56 37012.22 33893.13 31182.28 
 28657.84 26360.57 24539.35 22722.90 21329.48 20083.98 18832.61 17696.15 16641.63 15720.06 
 14919.98 14376.88 14016.82 13533.28 12995.65 12526.12 12064.17 11599.93 11145.21 10683.82 
 10199.82 9730.15  9321.19  8973.13  8630.85  8319.89  8055.15  7808.45  7564.90  7316.45  
 7060.20  6786.03  6484.29  6151.29  5810.16  5481.09  5170.10  4864.40  4567.60  4279.26  
 3995.94  3697.82  3432.59  3176.72  2934.45  2693.47  2452.61  2224.25  2025.15  1834.78  
 1661.72  1500.88  1364.72  1245.42  1142.46  1048.67  962.87   888.12   831.88   781.98   
 732.86   672.52   613.77   561.85   516.72   481.77   455.08   432.40   413.74   396.93   
 383.55   373.52   366.18   360.36   355.88   351.96   348.26   344.56   341.21   337.87   
 334.82   332.03   328.98   325.89   322.93   319.71   316.70   313.69   310.21   306.81   
 303.34   299.99   296.76   293.36   289.44   285.65   281.68   277.42   273.28   269.05   
 264.34   259.43   254.34   249.37   244.15   234.75   225.36   216.25   211.45   206.53   
 201.67   196.39   191.14   185.80   180.64   174.96   169.41   164.33   159.65   153.94   
 144.95   86.19    33.04    35.11    37.64    40.87    46.50    52.78    59.49    66.78    
 74.68    82.39    90.06    97.57    105.19   139.10   110.87   114.27   117.64   120.38   
 122.34   124.27   125.65   126.93   129.14   133.18   140.43   151.00   165.53   183.88   
 207.07   
738174.50 730511.27 717007.15 692675.65 646733.18 574080.79 484322.25 397573.71 324717.84 266969.79 
 222313.23 188583.25 162778.92 142488.45 125344.92 113593.52 101883.05 90172.58 81942.32 74388.66 
 67317.43 60683.39 54263.71 48346.40 43208.18 38795.71 35009.13 31876.08 29231.19 26924.41 
 24835.17 23057.59 21548.88 20308.65 19181.98 18143.66 17102.10 16163.85 15328.10 14597.93 
 13952.12 13370.62 12900.87 12483.76 12051.24 11652.97 11255.00 10896.08 10549.15 10225.70 
 9904.91  9572.41  9273.18  8959.38  8657.92  8387.58  8115.89  7821.64  7498.59  7172.50  
 6846.78  6539.64  6250.31  5957.53  5668.73  5386.41  5104.16  4833.98  4562.70  4282.14  
 4006.74  3714.46  3424.05  3137.29  2879.53  2632.50  2395.64  2164.50  1959.99  1768.19  
 1598.25  1447.83  1314.09  1191.29  1093.99  996.95   914.47   842.88   787.43   739.01   
 688.18   628.09   574.47   527.37   488.22   456.99   431.74   410.54   392.45   376.30   
 362.99   353.98   346.97   341.41   336.46   331.96   327.77   323.96   320.24   316.70   
 312.94   309.70   306.51   302.97   299.69   296.58   293.48   289.73   285.62   281.21   
 277.10   272.90   268.83   264.68   260.31   255.85   251.87   247.46   243.31   238.98   
 233.92   228.50   223.17   218.39   214.15   202.02   197.45   193.51   188.84   183.94   
 177.93   172.50   166.95   161.18   154.93   145.04   136.03   130.05   121.94   113.80   
 42.98    29.15    30.76    33.37    37.56    43.26    49.62    56.10    63.17    70.64    
 78.18    85.88    93.49    101.31   130.00   110.62   113.13   116.57   119.40   121.73   
 123.80   125.70   127.31   128.96   131.37   136.43   144.89   157.14   172.58   191.87   
 207.07   
738174.50 730680.15 718014.49 694500.24 650556.57 579455.55 493151.35 407444.60 334501.29 286907.24 
 239313.17 191933.33 164006.75 141431.24 123081.50 108504.01 96639.58 86895.37 78207.03 70499.42 
 63182.25 56428.50 50321.03 44804.57 39912.34 35770.09 32255.52 29110.86 26676.46 24242.06 
 21813.66 19978.50 18518.50 17395.96 16477.65 15667.90 14950.09 14279.26 13701.20 13207.22 
 12778.14 12392.10 12023.94 11692.40 11393.62 11106.60 10825.99 10542.97 10260.07 9953.16  
 9657.75  9381.49  9092.18  8788.91  8494.95  8207.16  7930.13  7679.55  7417.01  7164.93  
 6912.07  6661.79  6391.65  6109.36  5820.43  5513.24  5192.71  4868.27  4554.37  4247.52  
 3957.24  3673.84  3392.65  3128.07  2873.39  2638.23  2403.24  2185.22  1976.67  1793.50  
 1618.73  1458.77  1312.49  1186.63  1080.39  987.65   904.48   829.82   771.96   724.17   
 676.45   622.43   568.80   521.42   483.02   452.35   427.10   405.91   386.79   370.92   
 359.28   349.34   340.72   333.36   326.79   320.57   314.87   309.66   304.62   300.03   
 295.65   291.05   286.75   282.72   278.77   274.21   269.74   265.44   260.97   256.50   
 251.95   247.43   242.51   237.59   232.67   228.33   224.09   219.44   214.75   210.32   
 206.03   201.49   196.61   191.78   186.73   181.15   174.51   167.21   160.68   153.49   
 146.62   139.09   127.56   118.17   110.17   101.34   84.44    30.51    20.14    20.78    
 22.26    24.17    28.50    33.41    38.80    44.60    50.80    57.29    64.14    71.38    
 78.74    86.45    105.27   101.68   101.16   105.64   109.95   113.78   117.05   120.29   
 122.93   124.91   127.26   129.95   133.53   138.69   146.35   157.43   172.55   191.70   
 207.07   
738174.50 730753.87 717458.15 693035.83 649043.01 581077.95 496706.55 410977.31 335699.87 273782.70 
 226091.08 188915.71 160304.81 137282.93 118385.41 105615.72 92892.53 83849.29 76023.45 68755.72 
 62071.90 55752.72 49812.11 44314.14 39666.90 35654.01 32109.79 29105.09 26287.65 23631.62 
 21220.53 19103.11 17259.86 15790.40 14675.67 13855.57 13217.70 12709.17 12286.75 11960.72 
 11635.66 11310.60 11045.84 10821.30 10609.26 10372.63 10129.71 9911.46  9692.19  9464.39  
 9211.28  8953.66  8701.25  8461.43  8215.67  7958.10  7688.29  7421.61  7148.48  6856.66  
 6566.32  6291.33  6020.15  5755.48  5486.42  5216.51  4953.07  4692.92  4420.26  4146.26  
 3869.43  3617.29  3362.79  3103.54  2858.39  2633.61  2413.47  2190.14  1989.03  1811.21  
 1649.78  1500.63  1362.53  1237.01  1134.62  1032.46  948.10   869.53   804.78   754.36   
 701.84   644.98   591.54   546.76   506.46   472.61   444.94   420.51   400.33   382.37   
 366.79   353.36   341.39   331.18   321.15   311.74   303.27   295.53   288.75   281.98   
 275.25   269.05   263.76   258.27   253.38   248.42   243.19   238.06   232.91   227.51   
 222.58   217.79   212.78   207.55   202.10   196.21   190.58   185.69   181.44   176.91   
 169.68   161.99   153.95   145.25   136.55   127.26   117.97   108.68   98.41    86.28    
 67.71    28.77    16.04    12.68    10.88    10.68    12.15    14.24    16.73    19.66    
 22.95    26.66    30.82    35.47    40.71    46.42    52.58    59.43    73.38    74.38    
 77.30    83.30    88.99    94.10    98.72    103.09   107.82   111.65   114.76   117.22   
 119.79   122.62   126.04   129.92   134.64   140.74   148.83   159.93   173.90   191.49   
 207.07   
738174.50 732466.40 721703.43 701687.56 665031.24 604807.05 525577.30 438220.14 357774.78 304106.75 
 250438.70 197002.66 164634.00 138081.98 117524.73 101810.88 89696.84 79584.26 71149.19 63671.91 
 56735.22 50362.99 44516.27 39281.31 34522.20 30564.33 27259.73 24567.44 21881.21 19684.06 
 17757.57 16085.73 14687.98 13642.55 12884.81 12316.28 11884.75 11551.51 11257.47 10996.92 
 10732.28 10496.64 10269.73 10048.08 9826.86  9607.18  9380.84  9137.91  8894.35  8665.93  
 8452.87  8239.34  8021.32  7799.78  7570.09  7353.82  7143.10  6922.13  6688.93  6447.99  
 6200.58  5953.90  5700.43  5453.44  5208.35  4964.69  4727.89  4489.43  4247.71  4003.11  
 3754.53  3511.37  3282.10  3065.78  2850.30  2637.55  2424.91  2222.94  2040.55  1868.62  
 1709.22  1555.83  1422.42  1304.00  1198.11  1099.13  1006.83  927.65   860.07   800.93   
 748.96   691.41   633.69   580.32   533.68   493.48   456.27   422.72   392.53   364.58   
 341.60   322.38   305.05   289.13   275.24   263.50   252.89   242.19   231.53   223.25   
 215.55   208.19   202.89   195.68   188.09   180.33   173.08   165.79   158.41   151.49   
 144.20   136.90   129.69   122.46   114.66   106.60   97.78    87.69    76.67    63.42    
 47.08    29.92    19.13    13.56    10.23    5.92     5.69     6.03     6.40     6.86     
 7.44     8.09     8.90     9.98     11.22    12.82    14.93    17.45    20.32    23.71    
 30.54    34.90    33.32    37.15    41.15    46.05    51.21    56.61    62.25    67.87    
 73.57    79.28    84.92    90.30    95.23    99.94    104.95   108.78   112.41   116.01   
 119.51   123.07   127.07   131.83   137.46   144.52   153.31   163.84   176.53   191.82   
 207.07   
738174.50 733519.26 723692.26 705276.03 670696.39 614227.35 534777.02 449212.86 369001.51 298499.82 
 240433.54 194867.29 159996.51 132957.21 115751.50 98622.74 81493.96 70625.11 61599.57 53916.48 
 47391.22 41240.98 35618.86 30634.50 26401.09 22827.34 20004.74 17831.63 16001.53 14547.04 
 13396.43 12488.93 11918.78 11351.64 10784.50 10406.02 10083.96 9800.57  9545.00  9310.85  
 9108.15  8919.55  8715.26  8503.92  8276.67  8046.45  7823.51  7596.57  7383.01  7165.08  
 6959.48  6768.82  6579.12  6397.14  6209.14  6013.38  5822.01  5629.87  5436.09  5233.36  
 5026.49  4822.99  4634.39  4440.24  4243.20  4035.58  3832.33  3638.05  3444.67  3243.16  
 3051.75  2866.93  2680.63  2494.22  2311.86  2138.88  1968.83  1804.89  1653.60  1509.33  
 1380.15  1262.88  1156.14  1049.47  942.81   849.61   766.11   692.35   626.91   570.63   
 524.01   478.40   434.01   392.05   352.42   315.80   283.69   255.81   230.60   206.24   
 182.73   163.50   146.81   131.49   117.81   104.15   93.38    84.29    76.01    67.80    
 59.28    51.28    43.24    35.99    29.89    25.11    16.50    6.78     4.50     4.42     
 4.50     4.61     4.79     4.93     5.14     5.36     5.65     6.13     6.53     7.03     
 7.55     8.19     8.86     8.86     8.88     9.15     9.54     9.91     10.39    10.76    
 11.30    11.96    13.06    14.68    15.39    16.75    19.05    21.52    23.55    25.97    
 28.70    31.40    35.00    39.11    43.43    47.96    52.84    57.94    63.05    68.28    
 73.46    78.72    83.88    89.08    94.09    98.97    104.79   109.39   114.40   119.01   
 123.28   127.69   132.67   138.25   144.91   152.82   162.51   174.34   187.81   203.19   
 207.07   
738174.50 735213.86 728949.13 716453.64 689160.69 638463.96 570440.65 489054.58 403537.15 322096.20 
 253938.10 199755.30 159126.33 128774.37 110875.99 93109.32 75342.65 63335.28 53841.78 46155.20 
 40014.50 34595.98 29738.12 25497.49 21921.46 18792.56 16373.18 14449.38 12941.06 11764.41 
 10919.99 10079.60 9442.97  8892.73  8437.73  8020.89  7641.94  7314.32  7008.59  6747.94  
 6516.23  6301.82  6099.05  5891.29  5672.04  5445.55  5220.17  4995.98  4775.36  4565.83  
 4378.64  4202.59  4029.05  3868.15  3697.14  3534.30  3365.25  3200.46  3022.70  2840.06  
 2664.48  2494.56  2330.55  2173.30  2015.35  1866.06  1710.18  1558.55  1414.08  1274.81  
 1144.66  1014.61  884.56   767.07   655.64   555.31   459.02   373.69   299.82   236.66   
 183.04   135.91   99.39    62.98    37.54    14.24    7.14     5.95     5.52     5.27     
 5.06     4.98     4.91     4.84     4.87     4.88     4.69     4.58     4.78     4.96     
 5.09     5.25     5.45     5.69     5.93     6.15     6.43     6.63     6.89     7.19     
 7.41     7.73     8.09     8.36     8.73     9.12     9.53     9.97     10.37    10.82    
 11.26    11.68    12.14    12.61    13.10    13.59    14.08    14.61    15.15    15.71    
 16.25    16.85    17.51    18.20    18.88    19.69    20.61    21.66    22.95    24.48    
 26.32    28.69    31.75    35.57    40.23    46.04    53.30    62.37    73.27    86.12    
 101.14   117.70   135.66   155.09   176.20   197.80   219.29   241.35   263.42   283.42   
 301.35   317.09   331.45   343.21   351.79   358.05   361.05   361.93   359.10   353.50   
 345.75   335.90   325.00   312.76   299.80   286.16   272.08   257.65   242.58   227.34   
 207.07   
738174.50 736177.63 731328.59 722355.55 702626.48 661380.09 601887.30 530786.13 443746.00 356431.99 
 294718.76 233005.54 171498.67 134369.67 107050.72 86728.56 72194.86 60872.45 51662.24 43620.05 
 37475.61 32121.88 27801.83 23481.78 19173.29 16201.16 13671.72 11730.11 10177.41 8882.38  
 7825.25  6975.92  6336.37  5791.13  5286.68  4825.22  4430.63  4115.51  3825.57  3560.04  
 3321.75  3075.29  2866.29  2661.34  2456.13  2217.71  1966.04  1721.07  1463.07  1211.49  
 981.18   773.02   611.96   507.40   422.51   350.82   289.18   241.12   193.18   159.45   
 131.68   109.27   90.05    74.23    61.86    51.36    43.18    37.18    32.45    28.54    
 25.17    22.67    20.22    16.60    11.48    10.70    9.81     9.02     8.27     7.57     
 6.80     6.09     5.23     4.32     3.57     3.36     3.43     3.52     3.63     3.76     
 3.91     4.05     4.21     4.39     4.58     4.79     5.01     5.23     5.47     5.72     
 5.95     6.20     6.46     6.75     7.04     7.34     7.64     7.94     8.28     8.63     
 8.99     9.36     9.75     10.16    10.59    11.03    11.49    11.95    12.44    12.92    
 13.41    13.92    14.45    14.98    15.53    16.10    16.75    17.38    18.05    18.75    
 19.48    20.25    21.03    21.85    22.73    23.75    24.88    26.20    27.69    29.50    
 31.49    33.83    36.95    40.77    45.45    51.23    58.30    66.87    77.22    89.48    
 103.65   120.66   137.68   157.10   177.62   198.92   220.95   242.43   264.19   284.79   
 303.71   321.11   335.81   348.65   358.35   365.36   369.25   370.00   367.70   362.38   
 354.32   344.37   332.86   319.73   305.57   291.02   275.86   259.93   242.94   226.14   
 207.07   
738174.50 736510.99 732698.16 725849.41 709692.77 678375.11 624444.24 535075.62 436323.52 344809.26 
 262568.34 198458.76 152700.90 116455.66 96192.92 76099.67 59965.75 50676.11 42093.66 35014.07 
 30268.26 23765.31 19987.77 17113.15 14549.29 12285.85 10596.96 8914.05  7613.67  6529.05  
 5509.20  4373.74  3574.60  2841.62  2309.38  1867.37  1527.39  1196.42  932.20   668.67   
 442.34   287.45   211.08   161.86   131.55   109.75   88.04    75.34    65.41    56.76    
 50.42    44.50    40.05    36.53    33.36    30.34    28.02    25.96    24.62    23.12    
 21.88    20.79    18.07    12.85    10.40    9.80     9.23     8.72     8.31     7.90     
 7.56     7.26     6.98     6.66     6.38     6.07     5.78     5.48     5.16     4.81     
 4.49     4.19     3.93     3.77     3.75     3.82     3.94     4.09     4.25     4.42     
 4.61     4.80     4.99     5.22     5.44     5.69     5.95     6.21     6.49     6.78     
 7.07     7.38     7.68     8.01     8.34     8.67     9.01     9.37     9.72     10.09    
 10.48    10.87    11.29    11.70    12.13    12.58    13.05    13.48    13.95    14.43    
 14.92    15.40    15.89    16.41    16.93    17.46    18.02    18.62    19.24    19.90    
 20.58    21.32    22.13    23.05    24.07    25.25    26.63    28.22    30.02    32.11    
 34.55    37.47    40.94    45.08    49.92    55.66    62.71    71.29    81.53    93.41    
 107.08   122.61   140.02   159.14   179.91   201.35   223.35   246.29   269.24   290.56   
 310.41   328.37   343.88   356.64   366.64   373.32   376.77   376.72   373.56   367.52   
 358.79   347.77   335.07   321.14   305.98   289.18   272.27   254.90   236.84   217.79   
 207.07   
738174.50 737604.17 735204.73 730328.68 720636.18 678475.00 608065.61 531311.66 444156.88 351343.28 
 274700.25 198230.53 142966.36 109903.32 82522.53 61899.02 47537.30 40119.03 34688.67 30769.72 
 27239.69 24044.60 20841.33 16640.67 12450.60 9309.63  7490.77  5182.87  3962.81  2828.96  
 1696.94  816.67   386.80   280.59   174.87   128.69   97.01    75.81    63.43    53.99    
 47.11    41.65    36.68    33.05    30.08    27.30    25.29    23.86    22.53    21.48    
 20.34    19.39    18.57    17.84    16.70    13.97    10.08    8.56     8.30     8.02     
 7.70     7.40     7.13     6.91     6.70     6.48     6.30     6.11     5.93     5.77     
 5.60     5.43     5.26     5.06     4.84     4.66     4.49     4.34     4.21     4.09     
 3.97     3.86     3.81     3.82     3.87     3.99     4.10     4.25     4.38     4.52     
 4.69     4.86     5.02     5.23     5.43     5.65     5.88     6.14     6.41     6.68     
 6.96     7.25     7.55     7.88     8.23     8.57     8.90     9.26     9.61     9.99     
 10.36    10.75    11.15    11.56    11.98    12.43    12.88    13.35    13.83    14.32    
 14.83    15.36    15.91    16.47    17.04    17.63    18.27    18.95    19.68    20.45    
 21.30    22.24    23.25    24.37    25.60    26.97    28.59    30.36    32.32    34.57    
 37.21    40.14    43.52    47.51    52.12    57.71    64.25    71.99    81.17    92.24    
 105.04   120.94   136.87   155.77   176.39   198.40   221.48   244.22   268.07   290.63   
 312.00   331.39   348.31   362.58   373.22   380.18   383.52   383.45   380.02   373.55   
 364.63   353.73   341.22   327.20   311.54   294.54   276.08   257.06   237.52   217.50   
 207.07   
738174.50 738218.16 736803.86 732584.14 707698.74 647536.84 591836.75 522233.06 430483.69 345138.64 
 251825.73 183784.33 131899.73 99731.19 67776.06 55047.41 45397.36 38379.82 33190.54 28176.58 
 20278.32 15036.23 10626.08 7880.25  5153.01  3176.50  1968.47  1139.46  314.25   183.31   
 153.80   124.14   94.47    64.80    58.39    48.46    39.72    36.29    31.26    27.98    
 24.70    22.64    21.06    20.15    19.42    18.33    17.44    16.18    15.13    14.19    
 12.27    9.40     8.25     7.75     7.18     6.70     6.43     6.24     6.07     5.89     
 5.72     5.60     5.50     5.37     5.27     5.20     5.20     5.23     5.24     5.24     
 5.25     5.17     5.11     5.00     4.85     4.68     4.52     4.38     4.27     4.17     
 4.10     4.04     4.02     4.02     4.07     4.15     4.24     4.35     4.46     4.59     
 4.72     4.86     5.02     5.20     5.41     5.63     5.85     6.10     6.36     6.63     
 6.92     7.21     7.51     7.83     8.17     8.51     8.86     9.23     9.60     10.00    
 10.41    10.83    11.27    11.70    12.16    12.62    13.09    13.55    14.04    14.53    
 15.05    15.59    16.17    16.78    17.41    18.05    18.77    19.55    20.37    21.26    
 22.21    23.22    24.35    25.65    27.12    28.71    30.54    32.58    34.85    37.46    
 40.29    43.55    47.23    51.36    56.05    61.61    68.05    75.65    84.43    95.02    
 107.80   122.43   138.99   157.11   176.53   198.41   221.58   245.41   269.25   292.52   
 315.57   336.12   353.69   368.54   379.58   386.39   389.08   387.79   383.06   376.11   
 366.70   355.50   342.87   329.19   314.04   297.13   278.70   259.52   239.43   219.12   
 207.07   
738174.50 739592.85 739169.89 735720.90 707347.89 643372.46 591010.49 523863.74 445489.20 350824.62 
 268137.95 185549.37 115223.63 87450.91 69324.60 55993.27 45913.15 38072.30 28999.16 19958.30 
 15253.40 10158.79 6681.53  5370.78  4060.02  2749.27  1438.51  139.85   123.98   97.13    
 65.22    36.89    27.00    22.10    19.61    17.82    16.39    15.40    14.63    13.77    
 12.82    12.14    11.48    10.58    9.84     9.40     9.09     8.40     7.16     6.31     
 6.08     5.78     5.51     5.19     5.02     4.92     4.79     4.65     4.54     4.86     
 5.17     5.28     5.24     5.06     4.89     4.66     4.42     4.16     3.93     3.74     
 3.60     3.51     3.45     3.42     3.38     3.38     3.38     3.38     3.37     3.37     
 3.39     3.42     3.47     3.53     3.61     3.72     3.83     3.94     4.07     4.20     
 4.34     4.48     4.64     4.82     5.03     5.24     5.47     5.70     5.96     6.25     
 6.52     6.79     7.06     7.35     7.66     7.98     8.32     8.67     9.03     9.40     
 9.77     10.17    10.60    11.04    11.49    11.98    12.48    12.98    13.49    14.02    
 14.59    15.18    15.81    16.46    17.11    17.77    18.50    19.28    20.09    20.97    
 21.96    23.01    24.19    25.49    26.98    28.64    30.56    32.72    35.12    37.86    
 40.96    44.38    48.18    52.41    57.19    62.68    68.91    76.09    84.58    94.74    
 106.70   121.83   136.98   155.29   175.36   197.04   219.89   242.97   266.72   290.05   
 312.62   334.07   353.81   370.97   383.83   392.64   396.82   396.66   392.76   385.32   
 375.48   363.96   351.66   337.75   323.06   307.44   289.13   269.19   247.43   226.03   
 207.07   
738174.50 740215.69 739842.15 736756.13 706649.32 643900.95 589092.40 518967.59 444469.57 347428.79 
 259947.78 177990.00 112481.82 89681.49 67345.58 53906.34 43881.13 35418.85 23744.58 17205.51 
 11652.36 8424.14  5223.06  2792.73  1426.23  71.31    44.72    32.06    24.12    21.53    
 19.48    17.88    16.49    14.81    13.18    11.51    10.25    9.14     8.63     8.21     
 8.00     7.78     7.47     6.99     6.79     6.67     6.52     6.36     6.25     5.84     
 5.36     4.95     4.64     4.48     4.33     4.21     4.17     4.13     4.09     4.03     
 3.98     3.96     3.92     3.90     3.90     3.89     3.88     3.88     3.88     3.87     
 3.87     3.86     3.86     3.85     3.85     3.84     3.82     3.79     3.77     3.76     
 3.76     3.74     3.78     3.82     3.89     3.96     4.08     4.18     4.29     4.42     
 4.57     4.72     4.90     5.09     5.30     5.50     5.72     5.94     6.18     6.42     
 6.64     6.90     7.15     7.45     7.75     8.08     8.41     8.77     9.14     9.51     
 9.90     10.31    10.75    11.21    11.67    12.16    12.66    13.16    13.71    14.29    
 14.88    15.50    16.15    16.82    17.49    18.17    18.92    19.71    20.56    21.46    
 22.43    23.49    24.71    26.07    27.60    29.26    31.23    33.45    36.00    38.83    
 41.98    45.43    49.35    53.94    59.00    64.68    70.98    78.17    86.48    96.81    
 109.17   123.47   139.59   157.36   176.44   198.06   221.29   245.28   269.28   291.60   
 314.45   335.55   354.59   371.26   385.01   393.96   398.15   397.85   393.41   385.70   
 375.15   363.45   350.09   336.07   321.71   306.13   288.91   270.15   250.27   229.16   
 207.07   
