IESNA:LM-63-2002
[TEST] 1
[TESTLAB] AOK
[TESTDATE] 2022-05-13
[ISSUEDATE] 2022-05-13 18:40:16
[NEARFIELD] 
[LAMPPOSITION] 0,0
[OTHER] EVERFINE GO-2000A_V1 SYSTEM
[MANUFAC] AOK
[LUMCAT] A
[LUMINAIRE] AOK-400WiSF-HVY-S5-00-5070-30D-P
[LAMPCAT] B
[LAMP] 5050
[BALLAST] E
[BALLASTCAT] F
[OTHER] 
[OTHER] Gamma(deg)    Fz(lm)      Ft(lm)     %Lum    %Lamp
[OTHER]   0- 10     11048.27    11048.27    20.03    20.03
[OTHER]  10- 20     16615.78    27664.05    50.15    50.15
[OTHER]  20- 30     10143.02    37807.07    68.54    68.54
[OTHER]  30- 40      7133.18    44940.25    81.47    81.47
[OTHER]  40- 50      4512.42    49452.67    89.65    89.65
[OTHER]  50- 60      2580.10    52032.77    94.33    94.33
[OTHER]  60- 70      1528.90    53561.67    97.10    97.10
[OTHER]  70- 80       729.04    54290.71    98.43    98.43
[OTHER]  80- 90       299.39    54590.11    98.97    98.97
[OTHER]  90-100       152.53    54742.64    99.25    99.25
[OTHER] 100-110       104.50    54847.14    99.43    99.43
[OTHER] 110-120        82.82    54929.95    99.58    99.58
[OTHER] 120-130        64.22    54994.17    99.70    99.70
[OTHER] 130-140        49.26    55043.43    99.79    99.79
[OTHER] 140-150        41.15    55084.58    99.87    99.87
[OTHER] 150-160        37.74    55122.32    99.93    99.93
[OTHER] 160-170        26.92    55149.24    99.98    99.98
[OTHER] 170-180         9.69    55158.94   100.00   100.00
[OTHER] 
TILT=NONE
1 55159 1 181 25 1 2 0.150 0.200 0.000
1.000 1 397.927
0.0    1.0    2.0    3.0    4.0    5.0    6.0    7.0    8.0    9.0    
 10.0   11.0   12.0   13.0   14.0   15.0   16.0   17.0   18.0   19.0   
 20.0   21.0   22.0   23.0   24.0   25.0   26.0   27.0   28.0   29.0   
 30.0   31.0   32.0   33.0   34.0   35.0   36.0   37.0   38.0   39.0   
 40.0   41.0   42.0   43.0   44.0   45.0   46.0   47.0   48.0   49.0   
 50.0   51.0   52.0   53.0   54.0   55.0   56.0   57.0   58.0   59.0   
 60.0   61.0   62.0   63.0   64.0   65.0   66.0   67.0   68.0   69.0   
 70.0   71.0   72.0   73.0   74.0   75.0   76.0   77.0   78.0   79.0   
 80.0   81.0   82.0   83.0   84.0   85.0   86.0   87.0   88.0   89.0   
 90.0   91.0   92.0   93.0   94.0   95.0   96.0   97.0   98.0   99.0   
 100.0  101.0  102.0  103.0  104.0  105.0  106.0  107.0  108.0  109.0  
 110.0  111.0  112.0  113.0  114.0  115.0  116.0  117.0  118.0  119.0  
 120.0  121.0  122.0  123.0  124.0  125.0  126.0  127.0  128.0  129.0  
 130.0  131.0  132.0  133.0  134.0  135.0  136.0  137.0  138.0  139.0  
 140.0  141.0  142.0  143.0  144.0  145.0  146.0  147.0  148.0  149.0  
 150.0  151.0  152.0  153.0  154.0  155.0  156.0  157.0  158.0  159.0  
 160.0  161.0  162.0  163.0  164.0  165.0  166.0  167.0  168.0  169.0  
 170.0  171.0  172.0  173.0  174.0  175.0  176.0  177.0  178.0  179.0  
 180.0  
0.0    15.0   30.0   45.0   60.0   75.0   90.0   105.0  120.0  135.0  
 150.0  165.0  180.0  195.0  210.0  225.0  240.0  255.0  270.0  285.0  
 300.0  315.0  330.0  345.0  360.0  
128891.87 126757.15 126445.80 126158.15 115658.25 99291.81 87351.00 75751.09 60283.11 52035.47 
 37931.92 26701.39 15923.23 12687.34 9533.78  6380.22  3226.65  73.09    24.84    20.19    
 17.55    15.80    14.45    12.77    11.17    10.02    9.18     8.71     8.62     8.66     
 8.45     6.94     5.93     5.54     5.54     5.66     5.87     6.04     5.82     5.68     
 5.48     5.38     5.23     5.15     4.90     4.76     4.82     4.84     4.71     4.43     
 4.18     4.15     4.04     3.94     3.90     3.87     3.75     3.64     3.54     3.41     
 3.32     3.28     3.25     3.18     3.10     3.01     2.94     2.87     2.81     2.73     
 2.65     2.60     2.56     2.52     2.50     2.49     2.48     2.48     2.49     2.50     
 2.54     2.59     2.65     2.74     2.92     3.08     3.18     3.28     3.36     3.45     
 3.56     3.68     3.79     3.84     3.91     4.00     4.12     4.26     4.45     4.67     
 4.94     5.22     5.52     5.85     6.22     6.62     7.02     7.44     7.85     8.31     
 8.79     9.29     9.80     10.38    11.01    11.68    12.40    13.17    14.03    14.94    
 15.89    16.88    17.97    19.15    20.39    21.69    23.08    24.57    26.17    27.85    
 29.61    31.42    33.29    35.28    37.41    39.66    42.02    44.51    47.16    49.98    
 52.99    56.41    60.20    64.32    68.77    73.51    78.51    83.86    89.63    95.60    
 101.62   107.68   113.84   119.83   125.72   131.17   136.34   141.19   145.67   149.86   
 153.66   157.13   159.93   161.94   163.06   163.17   162.43   160.62   157.89   154.41   
 150.31   145.81   141.09   136.30   131.33   126.31   121.08   115.52   109.52   103.01   
 95.17    
128891.87 126221.10 125744.03 125283.37 122121.53 102065.90 91622.76 80799.37 66292.05 57881.91 
 43414.17 32719.27 22024.37 11329.46 728.71   599.99   543.51   279.49   220.85   204.41   
 187.96   171.14   107.82   140.51   110.64   61.24    32.27    24.04    18.91    15.95    
 13.69    11.70    9.84     8.35     7.70     7.26     7.01     6.93     6.91     6.73     
 6.42     6.18     5.89     5.64     5.46     5.23     4.98     4.80     4.61     4.38     
 4.16     4.03     3.89     3.75     3.59     3.45     3.32     3.19     3.09     3.01     
 2.92     2.85     2.78     2.71     2.65     2.59     2.55     2.52     2.47     2.41     
 2.36     2.32     2.26     2.21     2.20     2.19     2.19     2.19     2.20     2.22     
 2.23     2.25     2.28     2.32     2.38     2.45     2.52     2.61     2.70     2.81     
 2.94     3.06     3.18     3.31     3.46     3.62     3.80     3.98     4.19     4.42     
 4.68     4.95     5.25     5.57     5.91     6.26     6.63     7.03     7.45     7.90     
 8.40     8.90     9.45     10.01    10.61    11.27    11.99    12.77    13.57    14.42    
 15.38    16.40    17.50    18.63    19.84    21.14    22.55    24.05    25.63    27.27    
 28.99    30.77    32.67    34.62    36.66    38.82    41.14    43.56    46.10    48.90    
 52.02    55.39    59.02    63.03    67.39    72.09    77.07    82.43    88.05    94.02    
 100.06   106.22   112.15   118.23   124.06   129.60   134.88   139.73   144.40   148.69   
 152.67   156.29   159.20   161.35   162.62   162.89   162.33   160.84   158.44   155.45   
 151.81   147.77   143.61   139.31   134.76   130.10   124.93   119.21   112.93   106.02   
 95.17    
128891.87 126303.83 125606.94 125052.66 124247.67 111780.99 97162.67 86896.02 77705.67 62091.99 
 53991.13 41368.94 32404.18 22453.76 14247.69 10818.79 7439.49  4060.18  680.88   546.70   
 345.46   225.82   235.72   170.71   152.13   150.05   129.50   108.76   88.02    66.25    
 64.50    54.33    43.91    44.49    37.77    31.62    32.73    27.26    26.28    24.05    
 23.79    23.42    21.17    18.29    17.52    15.89    14.45    13.02    12.68    10.77    
 9.34     8.71     7.14     6.05     5.50     5.23     5.01     4.66     4.28     3.94     
 3.62     3.36     3.15     3.01     2.89     2.74     2.59     2.46     2.37     2.30     
 2.23     2.19     2.16     2.13     2.11     2.09     2.07     2.04     2.02     2.00     
 2.00     2.00     2.03     2.09     2.15     2.23     2.32     2.42     2.52     2.64     
 2.78     2.92     3.08     3.25     3.42     3.61     3.81     4.02     4.24     4.46     
 4.70     4.96     5.22     5.48     5.77     6.11     6.45     6.83     7.22     7.64     
 8.11     8.61     9.13     9.69     10.30    10.96    11.68    12.43    13.22    14.08    
 15.02    16.00    17.04    18.15    19.36    20.62    21.97    23.39    24.87    26.41    
 28.03    29.74    31.56    33.46    35.47    37.57    39.85    42.34    45.01    47.86    
 50.98    54.34    58.09    62.20    66.61    71.34    76.39    81.66    87.23    93.02    
 98.94    104.88   110.73   116.60   122.43   127.92   133.18   138.25   143.19   147.67   
 151.65   155.01   157.63   159.56   160.79   161.27   160.84   159.74   158.04   155.62   
 152.75   149.46   146.02   142.48   138.29   133.59   128.17   122.75   116.97   110.90   
 95.17    
128891.87 126862.95 125239.44 124603.94 123784.05 122494.80 114728.41 99173.23 88566.16 77047.05 
 69245.55 56386.33 46008.00 40389.39 29262.44 22691.11 16146.28 12376.19 6778.62  1220.75  
 999.53   738.05   481.49   355.78   309.61   249.97   190.46   144.91   110.86   91.69    
 79.84    70.74    63.77    57.59    52.49    47.76    43.12    39.67    35.99    32.32    
 28.83    24.93    22.31    20.78    19.82    18.67    17.71    16.70    15.59    14.40    
 13.19    12.08    11.02    9.98     9.04     8.29     7.73     7.26     6.79     6.35     
 5.95     5.55     5.19     4.86     4.59     4.35     4.13     3.91     3.69     3.46     
 3.24     3.02     2.83     2.66     2.51     2.38     2.27     2.16     2.07     1.99     
 1.90     1.87     1.87     1.90     1.96     2.03     2.12     2.21     2.31     2.43     
 2.56     2.69     2.83     2.98     3.15     3.31     3.48     3.67     3.86     4.07     
 4.29     4.52     4.76     5.03     5.31     5.61     5.94     6.30     6.67     7.07     
 7.54     8.03     8.54     9.08     9.64     10.26    10.93    11.65    12.40    13.19    
 14.02    14.96    15.95    16.96    18.01    19.13    20.32    21.61    22.96    24.39    
 25.89    27.48    29.19    30.98    32.85    34.91    37.15    39.52    41.99    44.77    
 47.87    51.18    54.73    58.60    62.79    67.38    72.15    77.25    82.52    88.03    
 93.71    99.44    105.14   111.03   116.81   122.48   127.90   132.95   137.77   142.06   
 145.85   149.17   151.85   153.96   155.44   156.36   156.62   156.29   155.29   153.85   
 152.00   149.63   147.35   144.37   140.83   136.91   132.61   127.51   122.36   117.25   
 95.17    
128891.87 127456.47 125639.77 124465.22 123516.91 121213.52 117850.36 113695.92 109836.85 97195.94 
 84016.02 74983.32 66170.28 56407.71 49482.02 40463.46 31009.63 25782.30 22078.80 15554.68 
 12066.27 9451.27  6846.09  5678.29  3687.97  1254.10  992.74   754.20   557.87   408.71   
 306.66   235.32   194.18   167.92   145.07   124.27   108.18   92.14    79.12    68.25    
 58.79    50.69    44.35    38.81    34.42    30.84    27.55    25.03    22.48    19.87    
 16.82    14.32    12.83    11.96    11.22    10.53    9.94     9.44     8.93     8.44     
 7.97     7.57     7.21     6.88     6.59     6.31     6.06     5.85     5.66     5.50     
 5.35     5.18     4.99     4.78     4.54     4.30     4.02     3.73     3.43     3.11     
 2.82     2.47     2.16     2.05     2.04     2.07     2.15     2.24     2.33     2.44     
 2.54     2.66     2.79     2.94     3.08     3.24     3.40     3.58     3.77     3.98     
 4.20     4.43     4.68     4.94     5.23     5.54     5.86     6.20     6.57     6.98     
 7.41     7.85     8.32     8.81     9.35     9.92     10.54    11.17    11.85    12.61    
 13.40    14.23    15.08    15.99    16.95    17.97    19.06    20.24    21.48    22.80    
 24.18    25.62    27.16    28.80    30.60    32.55    34.60    36.83    39.29    41.98    
 44.91    48.13    51.62    55.41    59.50    63.96    68.70    73.65    78.74    83.96    
 89.51    95.07    100.60   106.10   111.67   117.06   122.14   126.93   131.56   135.98   
 139.88   143.40   146.44   149.15   151.28   152.91   154.03   154.59   155.15   154.44   
 152.90   151.27   149.73   147.32   144.54   141.34   137.86   133.84   129.37   125.09   
 95.17    
128891.87 128240.73 127217.94 125800.33 124021.64 120884.61 117339.89 113722.88 109910.48 104746.96 
 99634.95 94085.73 86852.79 79772.90 72273.36 64714.42 57488.81 48269.77 40139.32 33275.61 
 28023.74 24696.01 21370.96 18377.81 15916.04 13956.46 12560.95 11115.21 9559.06  7712.86  
 6661.20  5833.90  5086.18  4397.75  3526.27  3000.87  2625.74  2249.46  1748.31  1425.96  
 1160.44  893.95   642.25   499.30   412.82   328.71   257.97   187.53   150.94   119.72   
 95.84    78.35    65.27    54.60    47.46    40.84    35.76    31.81    28.01    25.26    
 22.79    21.00    19.40    17.75    16.23    14.54    13.00    12.03    11.68    11.46    
 11.31    11.12    10.98    10.74    10.53    10.31    10.17    9.96     9.74     9.35     
 8.60     7.54     6.12     4.42     2.11     1.71     1.75     1.82     1.88     1.96     
 2.04     2.13     2.22     2.34     2.46     2.59     2.72     2.87     3.03     3.20     
 3.37     3.56     3.75     3.97     4.22     4.46     4.72     5.01     5.33     5.65     
 6.00     6.38     6.80     7.25     7.73     8.23     8.77     9.32     9.89     10.50    
 11.16    11.86    12.63    13.42    14.23    15.10    16.07    17.08    18.16    19.27    
 20.46    21.72    23.10    24.55    26.11    27.76    29.63    31.60    33.74    36.11    
 38.79    41.67    44.76    48.26    52.01    56.10    60.44    65.03    69.84    75.00    
 80.23    85.66    90.97    96.50    101.97   107.39   112.75   117.86   122.99   127.85   
 132.48   136.82   140.82   144.57   147.82   150.71   153.04   155.41   156.61   157.11   
 156.60   156.07   155.41   153.72   151.54   149.03   146.14   142.74   138.90   134.91   
 95.17    
128891.87 128813.59 128541.18 127923.16 126866.55 124239.80 120771.44 117099.79 113298.23 108176.48 
 102938.57 97219.64 91012.41 84367.55 76874.04 68965.97 61499.16 54830.28 48667.28 42774.26 
 37737.45 33439.76 30039.83 27535.80 25402.63 23274.47 21572.95 19906.79 18508.43 17217.97 
 15928.38 14852.84 13743.06 12815.87 11901.58 11099.55 10384.91 9656.25  8964.63  8316.11  
 7712.97  7113.66  6533.97  5987.77  5491.22  5051.43  4622.02  4221.67  3833.99  3465.68  
 3139.84  2873.65  2607.46  2341.81  2129.22  1948.75  1772.67  1618.83  1481.19  1350.21  
 1229.88  1114.99  1012.90  916.35   824.04   741.39   663.52   591.69   521.09   457.14   
 399.44   351.42   307.21   269.67   232.13   194.68   165.03   141.62   121.81   106.02   
 90.74    77.24    65.66    54.56    43.87    30.70    4.80     2.36     1.22     1.03     
 0.98     0.96     0.95     0.86     0.87     0.88     0.88     0.91     0.92     0.94     
 0.96     0.98     1.00     1.02     1.04     1.07     1.11     1.14     1.17     1.20     
 1.24     1.28     1.33     1.38     1.44     1.49     1.55     1.62     1.70     1.78     
 1.87     1.97     2.08     2.19     2.33     2.47     2.63     2.79     2.97     3.17     
 3.39     3.62     3.88     4.17     4.46     4.80     5.17     5.57     6.02     6.53     
 7.09     7.68     8.33     9.03     9.78     10.62    11.54    12.51    13.54    14.65    
 15.83    17.04    18.32    19.71    21.12    22.60    24.19    25.89    27.70    29.60    
 31.57    33.61    35.73    37.97    40.31    42.79    45.42    48.42    51.42    54.73    
 57.64    61.16    65.60    70.39    75.41    80.67    85.95    91.35    97.09    103.04   
 95.17    
128891.87 129654.72 130141.81 130129.66 129536.93 127600.52 124656.97 121139.97 117458.74 113092.99 
 108343.67 102816.26 96841.06 90297.69 83224.92 75802.03 68745.78 62141.30 55914.34 49992.71 
 44467.03 40116.65 36535.55 33513.39 31088.13 28938.07 27100.34 25460.39 23880.92 22425.07 
 21065.69 19802.51 18619.64 17520.91 16470.59 15535.94 14638.01 13823.88 13032.44 12314.40 
 11608.62 10902.96 10197.29 9550.02  8912.14  8298.91  7716.51  7156.13  6640.26  6167.07  
 5716.00  5303.69  4929.18  4584.01  4277.36  4013.73  3764.18  3539.32  3340.86  3153.10  
 2966.62  2801.17  2641.87  2483.83  2328.62  2184.70  2043.71  1910.80  1778.76  1649.15  
 1528.43  1417.85  1313.69  1214.11  1119.01  1023.95  938.83   859.44   785.26   717.98   
 653.44   596.35   540.96   489.90   446.09   406.68   372.04   341.78   315.15   292.68   
 274.06   256.55   238.23   222.21   206.90   192.97   180.28   169.06   158.65   148.37   
 139.56   131.38   123.68   116.57   109.47   103.38   98.12    93.19    88.58    84.81    
 80.94    77.39    74.37    71.30    67.87    64.71    61.72    58.46    55.36    52.36    
 49.55    46.50    43.73    41.10    38.13    35.21    32.31    29.32    25.97    22.45    
 18.48    13.92    10.42    7.93     6.14     4.67     3.70     3.61     3.91     4.28     
 4.70     5.16     5.65     6.20     6.80     7.43     8.12     8.87     9.65     10.47    
 11.34    12.24    13.20    14.21    15.29    16.41    17.61    18.90    20.25    21.68    
 23.20    24.82    26.51    28.41    30.49    32.73    35.10    37.58    40.36    43.92    
 46.68    50.66    54.68    59.31    64.55    70.06    75.83    81.94    88.22    94.87    
 95.17    
128891.87 130411.61 131537.16 132181.40 132350.72 131918.79 130605.92 128546.15 126000.09 122851.00 
 118885.17 114254.84 108725.09 101882.85 94379.10 86929.64 79380.18 71763.35 64783.16 58342.10 
 52576.92 47826.75 44086.62 40902.53 38127.30 35385.51 33128.26 30949.97 29068.85 27191.68 
 25624.67 24057.65 22492.34 21089.14 19872.63 18699.05 17588.26 16588.47 15661.98 14716.09 
 13826.84 13002.97 12229.04 11519.08 10844.43 10125.71 9494.81  8841.78  8222.93  7639.69  
 7110.10  6599.03  6123.49  5663.33  5249.97  4890.53  4569.33  4287.02  4030.71  3796.81  
 3588.80  3395.65  3201.36  3012.77  2830.52  2670.10  2509.78  2358.33  2208.85  2064.48  
 1924.71  1785.50  1647.05  1524.15  1406.83  1292.55  1184.31  1082.75  989.58   903.26   
 817.56   737.35   667.49   605.71   549.99   498.42   457.25   425.20   396.19   365.15   
 345.36   326.02   307.25   288.80   272.80   258.72   246.07   233.41   220.77   210.23   
 200.93   192.68   184.90   177.71   170.88   165.20   159.35   154.14   149.16   144.61   
 140.49   136.69   132.83   129.02   125.53   122.25   119.12   116.16   112.98   109.98   
 107.30   104.69   102.14   99.63    97.04    94.60    92.08    89.40    87.00    84.33    
 81.56    79.18    76.24    73.69    71.20    68.73    65.96    62.87    60.03    57.11    
 54.19    51.27    47.90    44.72    42.03    38.15    34.25    31.45    14.58    10.81    
 9.17     9.20     10.01    11.02    12.07    13.15    14.29    15.47    16.75    18.10    
 19.47    20.80    22.21    23.82    25.60    27.50    29.57    31.77    34.15    36.75    
 39.65    43.37    47.17    51.87    56.82    62.35    68.37    74.79    81.75    88.85    
 95.17    
128891.87 130957.45 132594.46 134049.21 135307.85 136351.52 136988.13 136625.35 134753.64 131721.24 
 127809.29 123032.23 117358.39 110739.83 103505.87 95591.66 87654.18 79635.52 71881.72 64392.29 
 58162.96 53076.13 49043.32 45496.01 42357.77 39500.91 36928.34 34535.36 32268.01 30132.75 
 28339.85 26570.02 24871.80 23344.88 21938.56 20632.53 19426.61 18237.38 17162.47 16053.79 
 15008.19 14010.81 13065.45 12140.41 11317.46 10495.41 9779.77  9135.87  8544.51  7970.06  
 7441.50  6978.96  6561.70  6172.60  5793.83  5434.45  5101.40  4796.35  4521.73  4253.80  
 4021.77  3767.74  3544.20  3335.44  3135.26  2943.61  2758.07  2579.82  2403.65  2230.32  
 2071.51  1922.07  1782.76  1644.34  1511.97  1390.91  1268.35  1163.25  1058.32  953.38   
 866.06   786.03   711.18   641.68   581.54   533.53   491.31   454.38   416.20   388.40   
 368.19   349.61   330.86   313.07   296.89   282.49   270.89   260.78   252.11   244.37   
 236.98   230.55   224.73   219.40   213.94   208.78   204.33   200.48   196.80   193.22   
 189.68   186.53   183.21   179.76   176.91   174.07   171.15   168.49   165.60   162.81   
 159.97   157.30   154.72   152.01   148.87   146.07   142.97   139.95   136.99   133.93   
 130.53   127.14   123.74   120.57   117.28   113.72   110.49   107.14   103.45   99.46    
 95.60    91.03    86.45    82.64    78.85    77.17    75.55    71.23    67.42    64.11    
 60.19    56.35    53.06    48.54    45.80    43.22    24.21    17.77    16.07    17.63    
 17.90    18.75    20.39    22.23    24.16    26.11    27.98    29.78    31.85    34.12    
 36.67    39.63    43.16    47.15    51.70    56.85    63.06    69.55    76.47    83.86    
 95.17    
128891.87 131349.15 133511.68 135887.65 138558.98 141403.57 143186.84 143034.61 141318.41 138662.04 
 135675.39 131474.24 126428.58 120294.48 112886.06 103913.16 94621.27 85799.87 77259.91 69998.14 
 63537.43 58188.86 53741.90 50164.59 47077.14 44201.17 41451.63 38678.05 36209.31 34056.76 
 31869.38 29956.35 28292.99 26610.45 24987.76 23365.95 21821.71 20314.11 18950.25 17688.69 
 16584.64 15561.81 14638.91 13769.55 12868.55 12090.09 11309.08 10586.17 9885.64  9210.01  
 8568.41  7985.85  7470.85  6999.95  6558.70  6152.12  5793.23  5457.37  5132.84  4850.55  
 4574.97  4322.24  4067.01  3804.84  3564.77  3343.88  3134.21  2921.95  2729.70  2537.45  
 2345.16  2149.61  1970.80  1806.69  1660.28  1523.39  1394.72  1275.35  1160.23  1054.16  
 956.00   865.00   783.42   712.41   651.44   597.81   550.35   507.61   464.77   436.71   
 414.69   394.38   372.79   353.07   334.05   318.80   305.54   294.98   285.97   278.93   
 272.95   268.06   263.78   259.98   256.71   253.92   251.91   250.07   248.06   246.27   
 244.70   243.07   240.55   238.04   235.52   233.27   230.34   226.23   221.96   217.45   
 212.93   208.18   203.37   198.49   193.91   189.56   185.45   182.02   178.24   174.44   
 170.61   167.11   162.90   158.88   155.00   151.04   146.87   142.44   138.44   133.95   
 128.40   122.39   116.64   110.06   105.22   100.34   96.94    92.80    88.33    83.84    
 82.89    83.61    79.25    74.33    70.12    67.66    64.92    61.09    57.55    55.27    
 30.06    20.64    21.22    22.46    23.79    26.02    28.40    30.81    33.02    34.99    
 37.13    39.52    42.29    45.61    49.66    54.37    59.71    66.05    73.25    80.73    
 95.17    
128891.87 131502.87 134078.71 137189.13 140902.16 144317.07 146074.38 145996.05 144749.01 142838.28 
 139880.65 136197.21 131157.27 123887.93 115023.73 105810.28 96567.94 87830.07 79591.57 72046.15 
 65615.11 60615.08 56621.36 53162.91 49883.17 46901.98 44339.21 41921.01 39639.60 37644.29 
 35730.85 33691.56 31773.78 29975.86 28175.01 26488.99 24926.71 23543.73 22150.07 20736.72 
 19362.71 18254.10 17155.93 16061.79 14959.77 13917.07 12926.36 12027.18 11165.19 10303.49 
 9537.39  8840.46  8236.42  7687.00  7215.51  6818.96  6494.51  6236.50  5997.12  5764.31  
 5449.59  5117.48  4861.29  4574.99  4308.05  4016.01  3709.70  3447.82  3126.50  2803.48  
 2541.90  2322.98  2140.25  1969.31  1810.11  1658.24  1520.08  1384.85  1261.68  1158.03  
 1054.54  951.05   866.79   792.39   728.31   671.15   619.93   568.46   522.35   495.16   
 470.43   446.97   422.05   399.11   376.06   357.68   341.32   328.43   318.25   309.61   
 303.23   298.33   294.83   292.21   289.86   288.11   286.37   285.45   283.80   281.75   
 279.66   278.04   276.56   275.21   273.56   271.16   268.25   264.86   260.81   255.42   
 250.19   244.96   239.39   233.38   227.66   221.83   215.94   210.27   204.84   199.65   
 194.59   189.84   185.00   180.25   175.59   170.97   159.82   152.82   148.91   145.77   
 142.21   137.90   133.72   129.58   124.20   118.82   114.35   109.65   105.32   100.80   
 94.50    88.87    85.44    86.04    84.04    78.55    73.93    72.80    71.88    69.28    
 63.60    61.13    26.73    24.70    26.55    28.76    31.37    34.21    36.98    39.51    
 41.21    43.39    45.77    48.49    51.97    56.44    61.71    68.20    75.41    83.11    
 95.17    
128891.87 131527.59 134107.68 137348.98 141397.75 144949.57 146913.80 147190.37 146286.22 144222.58 
 141168.46 137520.23 132296.88 124725.53 115978.05 106951.25 97684.74 88829.77 80395.08 73060.64 
 66858.60 61964.03 58079.74 54424.98 51159.82 48458.61 46028.26 43800.43 41994.47 40155.51 
 38203.37 36239.46 34413.79 32578.04 30905.18 29313.53 27913.57 26355.41 24774.88 23196.66 
 21804.30 20434.14 19035.22 17811.73 16540.48 15336.01 14230.21 13172.90 12154.27 11225.40 
 10373.12 9631.69  8958.68  8320.46  7749.31  7395.60  7286.46  7048.61  6834.55  6632.00  
 6252.60  5944.08  5607.26  5311.81  5061.03  4808.54  4306.75  3912.53  3464.56  3082.54  
 2828.95  2575.36  2322.61  2139.04  1964.83  1794.51  1632.24  1487.04  1356.96  1232.91  
 1123.74  1018.80  929.26   848.13   778.36   714.88   657.98   602.76   554.24   522.68   
 495.58   470.11   443.57   418.11   392.92   372.63   354.35   338.75   326.72   316.02   
 308.50   302.68   298.59   295.37   292.80   290.36   288.44   286.53   284.73   281.85   
 278.67   275.14   272.31   269.57   267.21   264.51   261.66   258.26   254.77   250.92   
 246.00   239.91   233.84   229.05   223.68   218.42   213.03   207.97   203.03   198.14   
 193.50   189.02   184.59   180.00   175.34   170.85   166.40   157.75   149.04   144.95   
 141.23   137.86   134.11   129.97   125.48   120.85   116.46   112.45   108.49   104.44   
 100.22   94.10    90.04    87.26    88.05    86.36    84.23    81.10    76.24    77.06    
 71.12    65.32    57.07    28.19    30.34    32.36    35.05    38.23    41.33    44.33    
 47.00    49.49    51.96    54.39    57.13    60.80    65.42    71.17    78.31    86.46    
 95.17    
128891.87 131313.07 133791.22 136897.56 140561.63 143636.95 145475.27 145713.33 144998.02 142921.59 
 139586.67 135763.40 130484.05 122903.57 113891.29 104603.35 95472.57 86802.67 78649.60 71191.23 
 64835.36 59889.42 56028.86 52654.98 49391.68 46650.29 44138.08 41917.99 39997.35 38308.21 
 36633.12 34879.30 33041.95 31361.61 29690.54 27944.56 26379.54 25009.41 23483.04 21967.09 
 20553.69 19235.88 17974.16 16803.64 15594.50 14495.47 13464.46 12489.27 11626.30 10764.20 
 9902.11  9169.99  8549.42  7972.66  7449.86  7045.08  6788.51  6558.40  6281.69  5950.58  
 5623.04  5296.43  5014.46  4707.37  4453.18  4188.69  3831.36  3505.99  3154.51  2864.42  
 2620.44  2417.66  2225.32  2040.12  1873.77  1716.78  1569.08  1431.45  1306.71  1182.08  
 1083.49  985.11   897.01   821.13   754.56   695.99   640.55   588.11   543.83   514.09   
 487.88   462.55   435.30   411.86   387.55   367.99   349.78   334.94   323.10   312.37   
 303.96   296.92   291.09   286.09   281.05   276.45   271.90   267.86   263.17   258.09   
 253.06   248.88   244.80   241.02   237.28   233.51   229.73   225.66   221.41   216.38   
 211.94   207.81   203.69   199.43   195.48   191.53   187.49   183.49   179.51   175.82   
 172.13   168.22   164.05   159.97   156.10   152.50   144.41   138.58   135.21   132.04   
 129.01   125.20   121.37   117.66   114.36   111.27   108.09   104.97   101.43   97.74    
 93.51    90.46    87.86    87.26    85.10    81.25    79.11    77.30    76.11    64.85    
 67.13    64.82    32.46    32.74    34.74    37.43    40.79    44.32    47.72    50.80    
 53.65    56.52    59.29    61.89    64.66    67.97    72.09    77.34    83.54    90.70    
 95.17    
128891.87 130954.87 132869.02 135181.83 137951.11 140738.38 142424.42 143082.78 142024.33 139878.51 
 136444.39 131816.46 126346.59 119475.91 111204.24 102190.32 93252.21 84414.04 76348.06 69068.39 
 62622.35 57212.40 52972.70 49568.03 46586.48 43794.96 41111.79 38614.00 36491.76 34543.56 
 32689.05 31054.13 29437.74 28079.04 26527.61 24985.60 23443.59 21903.08 20488.78 19116.71 
 17937.15 16829.42 15755.19 14774.76 13832.72 12971.87 12129.29 11315.52 10544.95 9786.45  
 9104.63  8469.27  7917.66  7375.23  6884.59  6450.37  6065.87  5704.68  5358.93  5072.73  
 4798.73  4511.21  4226.90  3944.14  3689.79  3458.49  3246.27  3026.03  2802.43  2599.26  
 2396.34  2213.53  2037.63  1871.99  1721.17  1579.49  1442.21  1315.06  1195.29  1090.09  
 989.64   895.58   811.70   739.32   677.91   622.70   572.85   526.31   484.43   456.56   
 433.30   411.70   388.19   366.66   346.12   328.81   312.52   299.25   287.27   277.39   
 268.85   261.30   254.44   247.45   241.05   234.65   228.26   222.75   217.38   212.59   
 208.08   203.86   199.85   196.24   192.44   188.94   185.27   181.29   177.82   174.04   
 170.13   166.39   162.77   159.24   155.73   152.23   149.10   146.57   143.32   140.05   
 137.03   134.12   130.90   128.08   125.60   122.89   120.22   117.32   115.00   112.24   
 108.95   104.59   100.60   95.87    92.21    89.41    87.58    85.56    84.81    83.66    
 81.77    79.77    75.51    72.87    70.58    69.14    67.54    65.67    60.28    55.05    
 32.61    32.02    34.02    36.36    39.45    43.11    46.80    50.60    54.36    57.96    
 61.30    64.40    67.27    70.22    73.47    77.13    81.35    86.20    91.80    97.82    
 95.17    
128891.87 130437.01 131702.99 133013.92 134513.97 136195.70 137294.88 137065.94 135591.85 132751.78 
 128972.67 124281.93 118290.83 110999.97 103474.57 95436.31 87192.47 78963.94 71229.96 63834.35 
 57533.23 52573.23 48536.32 45061.23 42137.02 39405.94 36951.56 34745.18 32675.84 30635.32 
 28814.83 27051.39 25496.55 24029.98 22662.37 21421.34 20263.87 19158.17 18079.40 16974.37 
 15892.60 14866.01 13938.07 12948.22 12024.57 11268.04 10512.94 9845.16  9171.30  8560.37  
 8013.60  7505.98  7026.18  6577.29  6152.97  5750.75  5388.16  5047.81  4744.29  4454.22  
 4176.61  3912.17  3670.97  3447.51  3239.33  3033.68  2845.56  2654.03  2462.85  2289.61  
 2130.06  1972.21  1823.16  1677.34  1539.51  1416.87  1294.78  1177.46  1077.27  977.23   
 888.19   805.77   727.95   659.96   599.65   549.95   505.02   467.25   429.25   402.26   
 381.41   360.35   339.42   319.27   301.91   285.77   271.57   259.27   248.62   238.75   
 229.24   221.05   213.31   205.83   198.95   192.67   186.85   181.61   176.46   171.92   
 167.85   163.66   159.33   155.22   151.93   148.52   145.49   142.21   139.35   136.37   
 133.82   131.31   128.59   125.47   122.34   119.89   117.41   114.99   112.73   110.67   
 108.34   105.80   103.29   100.92   98.70    96.58    94.19    91.65    89.13    86.65    
 83.72    80.32    77.50    75.04    72.30    70.20    67.90    63.63    60.74    57.49    
 54.92    52.77    51.13    48.56    48.18    36.04    27.12    28.08    29.49    31.36    
 33.40    36.50    39.79    43.19    46.69    50.20    53.81    57.40    61.25    65.13    
 68.50    71.50    74.52    77.81    81.52    85.68    90.24    95.21    100.41   105.96   
 95.17    
128891.87 129833.49 130385.29 130732.22 130961.04 131124.01 131011.44 130121.01 128309.59 125378.59 
 121133.30 115958.67 109952.39 103097.58 95634.71 88042.75 80452.33 72989.04 65697.21 59285.25 
 53524.16 48730.89 44700.16 41286.73 38455.26 35856.97 33457.16 31299.48 29431.28 27573.04 
 25885.25 24365.65 22847.53 21469.68 20286.52 19121.40 18077.80 17044.29 16090.87 15041.36 
 14203.15 13369.32 12587.55 11836.16 11103.68 10430.22 9782.38  9153.03  8511.58  7952.71  
 7370.21  6864.76  6371.56  5906.68  5454.16  5050.70  4705.31  4406.60  4128.87  3881.93  
 3656.20  3445.67  3246.38  3058.63  2874.84  2718.87  2562.90  2406.98  2255.42  2114.25  
 1971.19  1829.75  1692.93  1563.22  1438.98  1322.87  1210.34  1107.27  1013.87  924.50   
 836.78   755.37   683.49   619.95   563.84   512.57   468.68   434.43   405.61   376.80   
 356.33   336.89   317.20   298.25   281.12   265.81   252.63   239.06   225.50   213.98   
 203.56   193.78   185.01   177.24   170.27   163.43   156.69   150.60   145.43   140.59   
 136.22   132.25   128.05   124.25   120.76   117.51   114.57   111.37   108.34   105.24   
 102.45   99.41    96.45    93.91    91.09    88.41    85.98    83.53    80.83    78.19    
 75.32    72.20    69.64    67.03    65.00    62.22    59.63    57.07    54.77    52.25    
 49.56    46.46    43.69    40.53    38.08    35.46    31.61    17.83    14.42    14.18    
 15.46    17.31    19.35    21.56    23.90    26.41    29.09    31.90    34.87    37.93    
 41.09    44.28    47.52    50.87    54.27    57.84    61.51    65.13    68.61    72.07    
 75.33    78.36    82.20    86.38    90.66    95.20    99.99    104.88   109.90   114.95   
 95.17    
128891.87 129147.98 128997.14 128541.19 127847.61 126833.36 124972.87 122227.46 118913.87 115078.22 
 110607.34 105394.43 99273.98 92628.68 85512.67 77847.95 70696.67 63803.62 57351.37 51463.07 
 46253.44 41794.03 38124.66 34987.10 32394.77 30179.27 28323.51 26487.27 24759.61 23213.01 
 21777.77 20515.81 19329.84 18199.38 17139.92 16198.61 15199.48 14348.86 13505.62 12726.63 
 11987.41 11260.24 10533.18 9869.33  9225.10  8571.91  8009.61  7475.47  6946.33  6435.11  
 5962.30  5539.65  5132.56  4783.95  4449.78  4144.32  3871.67  3631.09  3407.06  3200.25  
 3007.48  2826.45  2656.91  2497.01  2336.40  2185.31  2043.05  1907.61  1774.61  1647.20  
 1528.57  1417.96  1309.70  1207.90  1114.16  1020.51  938.08   860.38   786.13   716.62   
 652.88   594.49   539.10   487.34   442.51   402.36   367.29   337.79   311.12   289.68   
 270.90   255.01   238.45   223.01   208.55   195.47   184.58   173.33   162.42   152.23   
 142.61   134.83   126.26   118.62   110.99   105.44   99.88    94.24    89.51    85.35    
 81.10    77.56    73.59    70.24    66.81    63.05    59.64    56.72    53.92    50.94    
 47.61    44.68    41.57    38.60    35.79    32.85    30.01    26.75    23.50    19.56    
 14.92    10.98    8.93     7.30     6.39     6.12     6.56     7.13     7.77     8.50     
 9.30     10.16    11.12    12.17    13.33    14.57    15.95    17.42    19.04    20.81    
 22.69    24.66    26.77    29.11    31.60    34.21    36.89    39.72    42.80    45.94    
 49.09    52.33    55.75    59.17    62.67    66.29    69.94    73.64    77.28    81.03    
 84.81    88.84    92.97    97.27    101.76   106.46   111.33   116.16   120.93   125.82   
 95.17    
128891.87 128666.82 128228.38 127561.65 126670.46 124754.84 121680.21 118096.33 114573.62 109851.97 
 104537.80 98646.43 92170.02 85374.04 77857.08 70130.22 62398.49 55555.71 49266.41 43561.79 
 38418.54 34157.14 30615.07 27936.98 25759.94 23643.80 21809.78 20094.42 18727.69 17369.36 
 15983.38 14814.80 13684.49 12724.92 11799.01 11016.20 10234.98 9505.74  8830.34  8202.59  
 7596.30  6980.24  6453.96  5897.45  5384.74  4989.02  4594.61  4201.82  3829.94  3452.65  
 3129.26  2829.61  2577.20  2327.37  2116.50  1933.40  1768.29  1628.68  1486.55  1356.85  
 1236.12  1128.74  1021.49  930.03   837.12   752.88   669.52   594.90   525.36   463.26   
 406.01   353.57   306.76   264.29   226.97   194.59   165.25   139.15   118.58   98.08    
 82.59    68.33    56.16    46.85    38.63    29.24    4.94     3.57     2.45     2.13     
 2.11     2.11     2.16     2.16     2.15     2.21     2.29     2.38     2.49     2.59     
 2.70     2.82     2.95     3.08     3.22     3.38     3.54     3.71     3.89     4.10     
 4.32     4.55     4.79     5.05     5.34     5.64     5.97     6.33     6.72     7.15     
 7.60     8.08     8.58     9.08     9.67     10.30    10.96    11.68    12.47    13.29    
 14.17    15.09    16.10    17.15    18.35    19.68    21.08    22.58    24.22    26.10    
 28.13    30.47    33.17    36.09    39.26    42.70    46.40    50.36    54.74    59.36    
 64.20    69.12    74.14    79.34    84.54    89.70    94.89    100.00   104.97   109.82   
 114.43   118.80   122.87   126.62   129.88   132.71   135.09   136.94   138.18   138.78   
 138.71   138.07   136.99   135.29   133.07   130.33   127.10   123.33   118.99   114.14   
 95.17    
128891.87 127956.83 127337.35 126902.99 126287.03 124920.66 121877.95 117904.66 114509.79 109248.56 
 103518.94 97879.21 90588.93 81283.91 70596.60 59944.71 50989.76 43464.09 37595.86 32383.85 
 28138.32 23892.79 19663.24 17388.86 15563.51 13025.10 10563.74 9086.13  7902.09  7028.71  
 6157.05  5036.08  4008.03  3617.21  3124.83  2630.17  2136.95  1806.47  1542.39  1185.81  
 813.77   663.38   537.52   431.34   331.89   267.26   202.83   161.25   131.67   106.85   
 89.62    77.23    66.70    56.18    48.73    43.24    38.45    34.78    31.41    28.53    
 25.91    24.18    22.35    20.49    18.50    15.87    14.96    14.77    14.54    14.32    
 14.12    14.11    14.13    14.09    14.00    13.93    13.83    13.69    13.51    12.94    
 11.96    10.44    8.12     5.56     2.52     1.74     1.78     1.84     1.91     1.99     
 2.08     2.17     2.28     2.39     2.52     2.64     2.78     2.92     3.08     3.24     
 3.41     3.59     3.77     3.99     4.21     4.44     4.68     4.95     5.23     5.53     
 5.85     6.20     6.58     6.98     7.41     7.90     8.40     8.93     9.47     10.04    
 10.65    11.31    12.01    12.74    13.49    14.29    15.14    16.08    17.07    18.09    
 19.17    20.33    21.58    22.88    24.27    25.79    27.51    29.31    31.25    33.43    
 35.86    38.50    41.42    44.59    48.08    51.88    55.95    60.33    64.92    69.77    
 74.79    79.90    84.95    90.25    95.35    100.46   105.46   110.20   114.90   119.29   
 123.40   127.20   130.62   133.72   136.44   138.58   140.18   141.31   141.75   141.53   
 140.68   139.22   137.17   134.57   131.48   127.84   123.61   118.82   113.41   107.66   
 95.17    
128891.87 127673.18 127402.23 127205.01 126885.42 126026.87 122990.06 113555.31 100066.86 88182.89 
 80453.74 70738.49 61785.39 54729.63 43547.35 35059.80 30211.16 23805.98 17325.04 14132.23 
 11567.62 9010.04  6452.47  2736.08  1223.14  945.27   680.40   497.64   369.48   271.66   
 214.21   182.43   160.43   142.22   126.38   110.56   94.74    83.82    73.67    64.89    
 57.44    49.75    44.01    38.93    34.75    31.01    27.77    24.63    21.68    17.34    
 14.96    13.78    12.98    12.18    11.41    10.69    9.85     9.26     8.72     8.33     
 7.90     7.57     7.20     6.86     6.65     6.45     6.23     6.02     5.85     5.69     
 5.56     5.40     5.19     5.01     4.85     4.61     4.29     3.91     3.59     3.26     
 2.92     2.51     2.20     2.10     2.10     2.13     2.21     2.30     2.39     2.49     
 2.60     2.72     2.85     3.00     3.15     3.32     3.50     3.69     3.88     4.09     
 4.31     4.55     4.79     5.04     5.33     5.63     5.94     6.27     6.62     6.99     
 7.41     7.85     8.32     8.79     9.28     9.83     10.42    11.02    11.66    12.38    
 13.13    13.89    14.70    15.57    16.50    17.46    18.45    19.53    20.70    21.94    
 23.25    24.62    26.07    27.60    29.27    31.13    33.14    35.30    37.65    40.20    
 42.96    45.95    49.26    53.02    57.07    61.35    65.90    70.59    75.41    80.47    
 85.89    91.33    96.73    101.98   107.07   111.85   116.72   121.41   125.72   129.62   
 133.18   136.28   139.08   141.32   143.04   144.35   145.20   145.28   144.87   143.88   
 142.34   140.12   137.56   134.37   130.62   126.24   121.36   115.91   109.78   103.18   
 95.17    
128891.87 127361.55 127130.81 127065.54 126821.09 121730.52 107263.83 96746.18 85060.96 75158.91 
 62068.81 51290.11 46199.19 34291.29 26869.90 19474.14 14831.65 8005.09  1243.66  1005.39  
 751.62   513.56   382.35   349.00   288.75   228.50   168.41   125.75   98.42    84.28    
 74.97    67.25    61.28    56.53    51.76    47.79    43.18    39.63    35.54    31.15    
 26.54    23.93    22.61    21.22    20.18    19.02    17.91    16.45    15.23    13.83    
 12.62    11.57    10.44    9.38     8.35     7.61     7.11     6.70     6.31     5.86     
 5.50     5.16     4.86     4.59     4.34     4.09     3.80     3.61     3.46     3.34     
 3.20     3.07     2.93     2.81     2.69     2.59     2.50     2.41     2.34     2.26     
 2.23     2.23     2.26     2.31     2.38     2.47     2.55     2.63     2.72     2.81     
 2.91     3.01     3.12     3.25     3.39     3.53     3.69     3.87     4.05     4.26     
 4.47     4.69     4.93     5.20     5.47     5.75     6.06     6.40     6.76     7.14     
 7.56     8.03     8.54     9.06     9.61     10.19    10.84    11.50    12.20    12.95    
 13.75    14.62    15.58    16.55    17.58    18.64    19.81    21.04    22.35    23.75    
 25.26    26.82    28.51    30.29    32.17    34.23    36.45    38.83    41.31    44.09    
 47.18    50.46    54.01    57.83    61.98    66.46    71.08    76.04    81.13    86.44    
 91.89    97.41    102.86   108.48   113.91   119.20   124.20   128.76   133.12   136.95   
 140.29   143.15   145.38   147.01   148.04   148.53   148.19   147.35   145.95   144.44   
 141.89   138.80   135.38   131.51   127.16   122.40   117.17   111.45   105.09   98.50    
 95.17    
128891.87 127406.24 127215.97 127103.07 123321.84 105922.01 95464.65 83592.81 72755.47 59071.55 
 51794.72 36973.49 29044.65 20595.16 10842.91 1076.82  848.03   716.26   575.35   412.86   
 271.19   240.97   193.29   184.54   156.07   137.63   120.54   103.47   86.39    74.70    
 63.83    56.50    44.14    44.03    37.86    31.95    34.58    27.93    26.80    25.42    
 26.34    23.25    20.62    19.05    19.23    15.46    15.38    13.62    12.43    11.28    
 10.43    9.48     8.08     6.55     5.83     5.55     5.36     5.10     4.78     4.46     
 4.17     3.93     3.67     3.44     3.23     3.05     2.90     2.76     2.62     2.50     
 2.41     2.34     2.28     2.23     2.19     2.15     2.13     2.10     2.09     2.08     
 2.09     2.10     2.16     2.23     2.30     2.38     2.47     2.57     2.67     2.78     
 2.90     3.02     3.15     3.29     3.43     3.58     3.76     3.95     4.16     4.39     
 4.63     4.89     5.16     5.45     5.76     6.11     6.47     6.85     7.24     7.66     
 8.13     8.63     9.13     9.67     10.27    10.92    11.60    12.32    13.09    13.92    
 14.78    15.72    16.70    17.76    18.91    20.10    21.41    22.81    24.27    25.78    
 27.41    29.10    30.93    32.89    34.96    37.13    39.49    42.04    44.75    47.71    
 50.85    54.28    58.10    62.20    66.61    71.34    76.34    81.50    86.91    92.54    
 98.27    103.91   109.46   114.86   120.33   125.62   130.56   135.22   139.70   143.81   
 147.26   150.06   152.17   153.57   154.16   153.96   152.93   151.22   148.90   145.80   
 142.24   138.26   134.08   129.50   124.85   119.75   114.22   108.38   102.18   95.47    
 95.17    
128891.87 126835.21 126620.04 126388.57 118570.87 99757.37 89916.99 79864.06 63294.14 56698.50 
 39970.62 30123.08 20275.54 10428.00 667.83   623.40   417.22   255.32   325.13   267.42   
 209.71   152.24   124.98   115.72   73.37    43.12    28.04    23.94    20.70    18.52    
 16.78    14.72    11.42    10.10    9.39     8.73     8.28     7.72     7.29     6.89     
 6.58     6.34     6.13     5.88     5.67     5.34     5.09     4.90     4.61     4.36     
 4.20     4.00     3.80     3.64     3.48     3.34     3.16     3.03     2.92     2.83     
 2.73     2.64     2.58     2.52     2.47     2.42     2.38     2.34     2.30     2.27     
 2.24     2.22     2.19     2.16     2.14     2.13     2.13     2.13     2.13     2.15     
 2.17     2.21     2.25     2.30     2.36     2.42     2.50     2.57     2.66     2.76     
 2.86     2.96     3.06     3.17     3.32     3.47     3.63     3.83     4.04     4.28     
 4.54     4.82     5.12     5.45     5.79     6.15     6.53     6.93     7.35     7.80     
 8.30     8.82     9.35     9.88     10.48    11.13    11.85    12.62    13.41    14.22    
 15.12    16.11    17.16    18.26    19.44    20.67    22.00    23.48    25.00    26.59    
 28.27    30.04    31.98    33.94    36.05    38.24    40.62    43.11    45.72    48.58    
 51.77    55.19    58.90    62.97    67.32    72.12    77.08    82.42    88.00    93.83    
 99.81    105.79   111.68   117.71   123.41   128.87   134.04   138.77   143.38   147.54   
 151.44   154.87   157.52   159.42   160.39   160.52   159.72   157.96   155.30   151.96   
 147.91   143.55   138.92   133.96   128.51   123.12   117.40   111.44   105.09   98.19    
 95.17    
128891.87 126757.15 126445.80 126158.15 115658.25 99291.81 87351.00 75751.09 60283.11 52035.47 
 37931.92 26701.39 15923.23 12687.34 9533.78  6380.22  3226.65  73.09    24.84    20.19    
 17.55    15.80    14.45    12.77    11.17    10.02    9.18     8.71     8.62     8.66     
 8.45     6.94     5.93     5.54     5.54     5.66     5.87     6.04     5.82     5.68     
 5.48     5.38     5.23     5.15     4.90     4.76     4.82     4.84     4.71     4.43     
 4.18     4.15     4.04     3.94     3.90     3.87     3.75     3.64     3.54     3.41     
 3.32     3.28     3.25     3.18     3.10     3.01     2.94     2.87     2.81     2.73     
 2.65     2.60     2.56     2.52     2.50     2.49     2.48     2.48     2.49     2.50     
 2.54     2.59     2.65     2.74     2.92     3.08     3.18     3.28     3.36     3.45     
 3.56     3.68     3.79     3.84     3.91     4.00     4.12     4.26     4.45     4.67     
 4.94     5.22     5.52     5.85     6.22     6.62     7.02     7.44     7.85     8.31     
 8.79     9.29     9.80     10.38    11.01    11.68    12.40    13.17    14.03    14.94    
 15.89    16.88    17.97    19.15    20.39    21.69    23.08    24.57    26.17    27.85    
 29.61    31.42    33.29    35.28    37.41    39.66    42.02    44.51    47.16    49.98    
 52.99    56.41    60.20    64.32    68.77    73.51    78.51    83.86    89.63    95.60    
 101.62   107.68   113.84   119.83   125.72   131.17   136.34   141.19   145.67   149.86   
 153.66   157.13   159.93   161.94   163.06   163.17   162.43   160.62   157.89   154.41   
 150.31   145.81   141.09   136.30   131.33   126.31   121.08   115.52   109.52   103.01   
 95.17    
