IESNA:LM-63-2002
[TEST] 1
[TESTLAB] AOK
[TESTDATE] 2022-05-12
[ISSUEDATE] 2022-05-12 08:38:39
[NEARFIELD] 
[LAMPPOSITION] 0,0
[OTHER] EVERFINE GO-2000A_V1 SYSTEM
[MANUFAC] AOK
[LUMCAT] A
[LUMINAIRE] AOK-600WiSF-HVY-S5-00-5070-3585D-P
[LAMPCAT] B
[LAMP] 5050
[BALLAST] E
[BALLASTCAT] F
[OTHER] 
[OTHER] Gamma(deg)    Fz(lm)      Ft(lm)     %Lum    %Lamp
[OTHER]   0- 10      6541.58     6541.58     7.97     7.97
[OTHER]  10- 20     14003.21    20544.79    25.03    25.03
[OTHER]  20- 30     16250.57    36795.36    44.83    44.83
[OTHER]  30- 40     15514.67    52310.03    63.73    63.73
[OTHER]  40- 50     12673.14    64983.17    79.17    79.17
[OTHER]  50- 60      8990.13    73973.31    90.12    90.12
[OTHER]  60- 70      4876.73    78850.03    96.06    96.06
[OTHER]  70- 80      1905.97    80756.00    98.38    98.38
[OTHER]  80- 90       563.43    81319.43    99.07    99.07
[OTHER]  90-100       214.39    81533.82    99.33    99.33
[OTHER] 100-110       138.20    81672.02    99.50    99.50
[OTHER] 110-120       113.04    81785.06    99.63    99.63
[OTHER] 120-130        93.14    81878.20    99.75    99.75
[OTHER] 130-140        73.62    81951.82    99.84    99.84
[OTHER] 140-150        58.81    82010.63    99.91    99.91
[OTHER] 150-160        42.61    82053.24    99.96    99.96
[OTHER] 160-170        23.43    82076.67    99.99    99.99
[OTHER] 170-180         8.27    82084.94   100.00   100.00
[OTHER] 
TILT=NONE
1 82085 1 181 25 1 2 0.150 0.200 0.000
1.000 1 607.635
0.0    1.0    2.0    3.0    4.0    5.0    6.0    7.0    8.0    9.0    
 10.0   11.0   12.0   13.0   14.0   15.0   16.0   17.0   18.0   19.0   
 20.0   21.0   22.0   23.0   24.0   25.0   26.0   27.0   28.0   29.0   
 30.0   31.0   32.0   33.0   34.0   35.0   36.0   37.0   38.0   39.0   
 40.0   41.0   42.0   43.0   44.0   45.0   46.0   47.0   48.0   49.0   
 50.0   51.0   52.0   53.0   54.0   55.0   56.0   57.0   58.0   59.0   
 60.0   61.0   62.0   63.0   64.0   65.0   66.0   67.0   68.0   69.0   
 70.0   71.0   72.0   73.0   74.0   75.0   76.0   77.0   78.0   79.0   
 80.0   81.0   82.0   83.0   84.0   85.0   86.0   87.0   88.0   89.0   
 90.0   91.0   92.0   93.0   94.0   95.0   96.0   97.0   98.0   99.0   
 100.0  101.0  102.0  103.0  104.0  105.0  106.0  107.0  108.0  109.0  
 110.0  111.0  112.0  113.0  114.0  115.0  116.0  117.0  118.0  119.0  
 120.0  121.0  122.0  123.0  124.0  125.0  126.0  127.0  128.0  129.0  
 130.0  131.0  132.0  133.0  134.0  135.0  136.0  137.0  138.0  139.0  
 140.0  141.0  142.0  143.0  144.0  145.0  146.0  147.0  148.0  149.0  
 150.0  151.0  152.0  153.0  154.0  155.0  156.0  157.0  158.0  159.0  
 160.0  161.0  162.0  163.0  164.0  165.0  166.0  167.0  168.0  169.0  
 170.0  171.0  172.0  173.0  174.0  175.0  176.0  177.0  178.0  179.0  
 180.0  
0.0    15.0   30.0   45.0   60.0   75.0   90.0   105.0  120.0  135.0  
 150.0  165.0  180.0  195.0  210.0  225.0  240.0  255.0  270.0  285.0  
 300.0  315.0  330.0  345.0  360.0  
71472.50 68167.90 65550.59 64061.14 62349.10 54598.05 48168.35 40800.38 32420.90 26782.93 
 18661.55 13146.77 7728.63  2311.23  1526.74  791.69   56.64    29.93    18.16    15.08    
 13.21    11.90    10.44    9.52     8.77     7.92     7.24     6.70     6.20     5.78     
 5.50     5.25     5.09     4.92     4.77     4.64     4.54     4.55     4.67     4.74     
 4.76     4.80     4.83     4.81     4.70     4.59     4.49     4.38     4.32     4.27     
 4.14     4.07     3.97     3.93     3.90     3.83     3.78     3.74     3.71     3.66     
 3.61     3.58     3.56     3.53     3.47     3.44     3.43     3.42     3.40     3.37     
 3.35     3.31     3.29     3.28     3.29     3.30     3.30     3.31     3.32     3.33     
 3.36     3.42     3.48     3.58     3.65     3.75     3.87     4.01     4.17     4.35     
 4.55     4.78     5.05     5.33     5.64     5.99     6.39     6.82     7.28     7.75     
 8.27     8.87     9.50     10.17    10.88    11.67    12.50    13.35    14.22    15.17    
 16.15    17.14    18.15    19.22    20.35    21.48    22.61    23.74    24.95    26.18    
 27.47    28.79    30.17    31.64    33.20    34.81    36.55    38.40    40.31    42.30    
 44.32    46.38    48.56    50.83    53.14    55.48    57.93    60.36    62.87    65.42    
 67.99    70.62    73.42    76.34    79.39    82.63    85.84    89.23    92.63    96.10    
 99.67    103.36   107.05   110.65   114.25   117.70   120.83   123.66   126.29   128.60   
 130.57   132.21   133.60   134.55   134.98   134.81   134.04   132.62   130.58   127.91   
 124.68   120.94   117.03   112.71   108.35   103.78   99.27    94.75    90.19    85.49    
 79.95    
71472.50 68355.85 65470.51 63778.08 62717.20 57488.27 50368.13 43656.54 37211.81 28851.36 
 22640.19 16434.99 10969.66 7433.53  3897.39  392.87   309.58   226.29   143.24   84.06    
 44.05    27.13    18.89    13.98    11.70    10.26    9.25     8.48     8.01     7.63     
 7.31     6.99     6.82     6.66     6.32     5.87     5.80     5.77     5.70     5.54     
 5.41     5.33     5.21     5.06     4.87     4.93     4.98     4.97     4.93     4.88     
 4.80     4.73     4.60     4.52     4.40     4.31     4.23     4.14     4.05     3.99     
 3.89     3.78     3.67     3.58     3.53     3.46     3.38     3.29     3.23     3.20     
 3.15     3.09     3.01     2.95     2.93     2.92     2.92     2.93     2.94     2.96     
 2.98     3.02     3.06     3.11     3.19     3.30     3.44     3.59     3.77     3.98     
 4.22     4.48     4.76     5.08     5.42     5.78     6.17     6.61     7.11     7.60     
 8.13     8.71     9.35     10.03    10.79    11.55    12.36    13.22    14.14    15.10    
 16.09    17.11    18.17    19.29    20.40    21.55    22.73    23.92    25.13    26.38    
 27.73    29.18    30.68    32.19    33.78    35.41    37.18    39.01    40.91    42.84    
 44.83    46.86    48.94    51.03    53.13    55.28    57.52    59.74    61.98    64.31    
 66.79    69.32    71.93    74.76    77.66    80.66    83.67    86.81    90.00    93.36    
 96.85    100.38   103.87   107.45   110.84   114.05   117.03   119.64   122.05   124.12   
 125.89   127.42   128.68   129.58   129.95   129.82   129.08   127.72   125.83   123.39   
 120.51   117.33   113.98   110.48   106.94   103.38   99.72    96.97    92.70    87.98    
 79.95    
71472.50 68687.21 66002.07 64186.28 63083.12 61731.51 55323.60 49565.43 43212.01 37435.88 
 29319.74 25109.74 17748.37 13391.28 8703.70  4012.24  954.14   624.83   330.06   254.06   
 220.86   165.96   128.01   106.40   84.96    72.37    62.61    51.46    48.89    46.97    
 38.92    32.98    29.44    28.23    25.11    22.02    18.52    15.50    13.12    11.64    
 10.59    9.69     9.00     8.36     7.79     7.36     7.06     6.77     6.52     6.26     
 6.03     5.83     5.62     5.42     5.22     5.03     4.87     4.74     4.61     4.47     
 4.32     4.21     4.11     3.99     3.89     3.78     3.71     3.62     3.55     3.48     
 3.42     3.35     3.29     3.24     3.20     3.15     3.11     3.09     3.06     3.06     
 3.05     3.05     3.06     3.12     3.23     3.37     3.55     3.75     3.97     4.22     
 4.51     4.82     5.17     5.54     5.97     6.41     6.91     7.43     8.04     8.70     
 9.41     10.15    10.94    11.79    12.68    13.60    14.56    15.54    16.59    17.66    
 18.78    19.93    21.14    22.31    23.56    24.84    26.15    27.50    28.92    30.36    
 31.84    33.36    34.96    36.57    38.20    39.85    41.59    43.32    45.10    46.85    
 48.65    50.50    52.42    54.37    56.39    58.46    60.62    62.94    65.34    67.81    
 70.37    72.98    75.68    78.54    81.48    84.46    87.51    90.56    93.63    96.89    
 100.16   103.33   106.35   109.14   111.71   114.11   116.40   118.46   120.28   121.89   
 123.33   124.55   125.38   125.79   125.73   125.28   124.39   123.07   121.43   119.49   
 117.29   114.93   112.43   111.11   108.62   105.68   102.67   99.39    95.89    92.11    
 79.95    
71472.50 69174.41 66986.89 64991.50 63603.18 62696.30 62111.78 59095.18 52613.22 47828.79 
 42288.90 37681.60 31485.84 26561.88 21637.92 16728.76 13411.33 9140.53  6374.29  3638.13  
 919.95   542.59   425.59   312.06   252.75   193.69   162.27   130.99   107.12   89.43    
 75.06    65.88    55.95    47.83    41.74    36.75    32.89    29.52    26.64    24.21    
 22.01    20.01    17.76    15.33    13.63    12.84    12.40    11.95    11.47    10.86    
 10.24    9.57     8.81     8.01     7.46     7.12     6.96     6.85     6.70     6.51     
 6.30     6.08     5.86     5.64     5.41     5.21     5.02     4.84     4.67     4.51     
 4.35     4.20     4.04     3.90     3.77     3.65     3.55     3.44     3.36     3.29     
 3.25     3.25     3.26     3.30     3.40     3.56     3.79     4.05     4.37     4.72     
 5.12     5.56     6.04     6.56     7.12     7.72     8.36     9.05     9.77     10.53    
 11.31    12.13    13.00    13.96    14.94    15.91    16.92    17.98    19.11    20.26    
 21.42    22.64    23.90    25.23    26.56    27.96    29.40    30.86    32.31    33.83    
 35.40    37.04    38.73    40.41    42.10    43.88    45.71    47.63    49.58    51.57    
 53.60    55.69    57.85    60.04    62.25    64.55    66.94    69.35    71.72    74.23    
 76.86    79.47    82.10    84.78    87.45    90.14    92.78    95.38    97.85    100.25   
 102.60   104.80   106.86   108.84   110.69   112.41   114.04   115.44   116.68   117.66   
 118.45   118.97   119.25   119.29   119.06   118.53   117.80   116.87   115.78   114.56   
 113.86   112.93   111.82   110.23   108.53   106.49   102.94   101.99   99.62    96.85    
 79.95    
71472.50 69806.07 68286.37 66860.96 65436.51 64262.53 62956.87 61664.93 60673.92 59887.11 
 57050.48 52121.74 47860.23 44791.58 40616.07 36706.71 33411.85 28626.84 24300.74 22124.20 
 18678.15 14769.13 12421.31 10044.41 7666.98  5289.55  2529.72  1118.41  798.50   492.37   
 365.32   266.15   194.49   152.83   126.63   106.44   86.32    75.20    69.12    58.23    
 50.64    44.71    40.13    35.17    32.15    29.43    26.96    24.87    22.39    20.27    
 18.46    16.91    15.11    13.04    11.64    11.03    10.54    10.16    9.76     9.39     
 8.95     8.59     8.24     7.92     7.63     7.36     7.08     6.82     6.58     6.37     
 6.15     5.95     5.76     5.55     5.37     5.18     4.99     4.79     4.61     4.46     
 4.33     4.21     4.14     4.12     4.12     4.29     4.58     4.93     5.32     5.72     
 6.17     6.66     7.19     7.78     8.40     9.09     9.82     10.60    11.41    12.28    
 13.20    14.16    15.16    16.21    17.34    18.57    19.82    21.10    22.39    23.72    
 25.14    26.63    28.17    29.75    31.34    32.95    34.65    36.46    38.28    40.12    
 41.99    43.93    45.96    48.02    50.07    52.14    54.32    56.57    58.80    61.05    
 63.30    65.53    67.79    70.09    72.41    74.70    76.98    79.27    81.55    83.82    
 86.03    88.29    90.48    92.63    94.70    96.69    98.64    100.52   102.26   103.91   
 105.41   106.80   108.08   109.25   110.34   111.27   112.05   112.70   113.22   113.62   
 113.90   114.04   114.10   114.09   113.98   113.82   113.56   113.24   112.98   112.34   
 111.72   111.08   110.62   110.11   109.21   107.96   106.92   105.87   104.47   102.98   
 79.95    
71472.50 70581.53 69814.36 69131.56 68424.98 67638.99 66580.92 65201.46 63944.39 62679.58 
 61354.02 60132.70 58954.26 57848.05 57080.28 55897.53 54730.22 53569.73 52315.51 50515.55 
 47995.13 45035.83 42064.54 39513.96 37581.18 35044.30 32454.58 29558.44 27175.06 24577.26 
 21979.46 19381.07 16710.14 14774.35 13100.07 11126.52 9355.38  7817.98  6443.05  5319.27  
 4228.33  3387.10  2628.03  1870.33  1289.29  881.01   620.29   447.92   328.31   271.55   
 214.79   158.31   130.74   99.50    81.91    71.37    61.47    49.52    42.80    37.82    
 32.98    29.56    26.78    24.69    22.32    20.16    17.96    15.79    13.88    13.00    
 12.51    11.89    10.95    10.10    9.39     8.89     8.34     7.74     7.28     6.80     
 6.22     5.79     5.34     4.93     4.53     4.22     4.25     4.52     4.85     5.22     
 5.61     6.06     6.54     7.07     7.64     8.24     8.87     9.57     10.33    11.15    
 12.01    12.90    13.86    14.89    15.97    17.11    18.27    19.50    20.82    22.17    
 23.61    25.08    26.62    28.19    29.82    31.54    33.25    34.98    36.78    38.67    
 40.62    42.64    44.72    46.74    48.79    50.86    53.03    55.22    57.41    59.62    
 61.82    64.03    66.24    68.43    70.58    72.73    74.92    77.05    79.10    81.17    
 83.27    85.27    87.21    89.10    90.88    92.59    94.28    95.83    97.37    98.96    
 100.37   101.73   102.94   104.05   105.20   106.36   107.35   108.22   109.06   109.82   
 110.54   111.19   111.77   112.27   112.73   113.16   113.53   115.12   115.38   115.55   
 115.63   115.56   115.38   115.11   114.43   113.69   113.05   112.26   111.27   110.27   
 79.95    
71472.50 71488.98 71542.63 71718.95 71854.86 71931.19 71677.70 71076.40 70578.99 70024.94 
 69505.15 68846.04 68167.29 67507.35 66757.97 66170.15 65480.04 64863.80 64124.12 63350.46 
 62539.64 61798.95 60921.54 59900.75 58852.37 57822.92 56715.39 55716.54 54513.64 53179.02 
 51784.92 50410.76 49023.11 47488.76 45988.86 44368.20 42613.85 40974.08 39286.58 37590.10 
 35810.65 34060.84 32417.29 30741.22 28998.26 27320.77 25812.51 24304.25 22796.42 21327.57 
 20046.01 18679.72 17295.48 15953.94 14656.83 13372.78 12365.86 11348.99 10308.07 9277.95  
 8276.48  7416.25  6653.45  5960.87  5349.35  4755.93  4201.10  3675.98  3214.60  2796.19  
 2378.70  2039.93  1731.96  1462.77  1209.01  989.89   789.25   619.84   486.68   379.44   
 305.18   230.92   157.06   117.42   87.15    59.03    26.48    11.01    6.70     6.10     
 5.64     5.36     4.68     4.15     3.88     3.59     2.61     2.56     2.62     2.70     
 2.80     2.91     3.03     3.17     3.31     3.47     3.64     3.83     4.04     4.26     
 4.49     4.74     5.01     5.31     5.61     5.93     6.28     6.63     7.01     7.42     
 7.83     8.25     8.70     9.17     9.68     10.19    10.73    11.27    11.81    12.39    
 13.00    13.60    14.22    14.89    15.55    16.24    16.96    17.73    18.49    19.30    
 20.14    20.99    21.86    22.78    23.72    24.75    25.80    26.89    28.01    29.19    
 30.46    31.78    33.14    34.59    36.15    37.75    39.52    41.48    43.53    45.71    
 47.98    50.35    52.80    55.36    57.98    60.62    63.24    67.37    70.27    73.04    
 75.76    78.47    81.11    83.61    86.03    88.27    90.38    92.14    93.66    95.01    
 79.95    
71472.50 72347.41 73285.94 74304.99 75336.65 76357.63 77085.96 77516.01 77915.27 78306.29 
 78665.27 79111.87 79543.25 79826.57 79916.75 79813.42 79589.22 79443.35 79230.39 78845.10 
 78182.64 77505.65 76580.84 75386.10 74029.20 72690.98 71296.93 69858.36 68363.68 66764.66 
 65244.48 63757.00 62042.15 60241.33 58447.78 56786.22 55057.76 53264.77 51508.08 49722.95 
 48065.24 46304.99 44555.73 42882.48 41353.72 39678.39 37985.79 36297.06 34672.35 33192.15 
 31685.13 30058.07 28609.47 27206.51 25803.97 24325.52 22930.31 21631.76 20477.92 19285.27 
 18016.30 16837.99 15764.89 14760.69 13697.26 12697.16 11805.54 10914.89 10024.24 9103.96  
 8240.60  7478.65  6740.58  6045.17  5388.23  4852.26  4344.56  3859.79  3404.79  2958.96  
 2611.27  2286.68  1999.57  1732.54  1525.61  1348.01  1200.57  1053.41  906.26   805.56   
 719.74   644.35   574.23   514.46   465.25   422.95   384.47   350.99   322.92   297.77   
 274.97   256.50   239.81   225.15   210.72   198.30   187.89   178.86   170.62   163.09   
 156.40   149.80   143.64   137.13   130.71   124.21   117.72   112.21   107.14   102.63   
 98.42    93.94    89.71    85.25    80.85    75.69    70.37    63.60    54.41    45.24    
 36.31    29.35    24.37    20.35    15.56    11.91    10.86    11.27    11.88    12.54    
 13.20    13.86    14.52    15.17    15.83    16.50    17.15    17.81    18.48    19.19    
 19.90    20.64    21.41    22.24    23.13    24.10    25.17    26.37    27.70    29.23    
 30.89    32.82    34.97    37.36    39.92    42.62    45.40    48.32    51.38    56.14    
 59.46    62.83    66.21    69.52    72.82    76.10    79.24    82.20    84.95    87.64    
 79.95    
71472.50 73159.87 74877.11 76753.46 78558.23 80394.75 82211.21 84016.86 85289.78 86362.17 
 87072.34 87224.10 86458.58 85257.88 84134.16 83093.06 81939.01 80700.57 79426.22 78153.52 
 76704.87 75227.79 73715.66 72291.13 70825.57 69272.82 67787.72 66272.71 64600.99 62861.54 
 61138.31 59369.88 57556.68 55676.69 53912.23 52098.47 50174.96 48443.92 46756.62 45050.28 
 43419.25 41742.47 40226.45 38818.97 37452.52 36178.88 34974.72 33898.46 32812.03 31541.24 
 30235.13 28981.61 27780.18 26590.00 25402.99 24215.99 23028.27 21777.66 20627.84 19565.51 
 18463.14 17436.10 16537.66 15653.16 14781.68 13921.78 13037.61 12121.96 11185.86 10272.53 
 9434.20  8629.19  7798.54  7024.43  6235.50  5459.54  4639.38  4027.57  3503.30  3044.31  
 2585.32  2128.01  1815.75  1582.15  1363.45  1198.59  1056.89  942.39   844.36   759.32   
 694.39   632.03   569.14   516.62   473.43   440.72   412.79   390.05   370.60   353.36   
 338.23   324.47   312.20   300.70   291.53   283.36   275.33   267.58   261.23   255.64   
 250.47   244.91   239.35   233.80   229.28   224.79   220.29   216.37   212.51   208.25   
 204.37   200.74   196.99   193.14   189.83   186.43   182.58   179.02   175.31   171.53   
 166.54   160.28   153.19   146.10   139.65   132.71   125.63   118.99   112.52   105.65   
 97.69    89.10    81.35    75.20    70.03    64.80    60.55    46.00    25.35    17.03    
 13.71    13.34    14.08    14.87    15.68    16.50    17.38    18.28    19.27    20.38    
 21.58    22.91    24.46    26.22    28.13    30.28    32.60    35.24    38.10    41.28    
 44.65    49.15    53.49    57.44    61.56    65.68    69.77    73.78    77.89    81.95    
 79.95    
71472.50 73865.94 76363.52 78813.88 81524.25 84209.23 86405.70 88177.61 88629.87 87789.90 
 86818.24 85809.50 84600.31 83573.60 82308.12 81012.71 79484.87 78095.03 76670.59 74614.04 
 72231.57 69858.16 67404.85 65078.90 62850.12 60822.35 59008.46 57241.08 55669.05 54454.72 
 53439.77 52474.67 51498.01 50441.23 49467.78 48495.06 47470.27 46336.93 44970.13 43589.85 
 42161.51 40852.63 39508.90 38124.84 36648.40 35159.13 33569.70 32107.55 30754.57 29454.52 
 28166.38 26906.80 25855.39 24825.97 23764.74 22667.20 21525.33 20391.09 19276.93 18190.97 
 17029.12 15937.78 14839.99 13786.12 12604.71 11553.50 10503.49 9453.48  8358.09  7377.18  
 6509.66  5837.93  5255.40  4690.57  4116.59  3643.04  3114.49  2727.77  2387.76  2102.51  
 1832.75  1596.39  1400.49  1239.86  1106.93  974.28   863.50   772.35   694.56   637.16   
 586.44   536.05   488.18   447.95   416.08   388.41   368.47   353.01   340.21   329.14   
 318.95   310.04   302.41   296.84   290.24   284.86   280.07   274.66   269.85   265.70   
 261.17   257.07   253.23   248.96   244.69   240.72   237.11   233.24   229.37   225.93   
 222.66   218.88   215.13   210.30   204.71   199.90   194.75   189.90   185.07   180.70   
 176.04   172.28   169.46   166.55   163.34   160.25   157.82   155.36   152.89   150.12   
 147.61   144.62   141.71   138.93   136.77   132.38   125.68   118.96   114.24   108.08   
 102.39   90.71    83.82    81.82    78.93    68.02    38.75    24.60    18.43    16.86    
 16.07    17.09    18.49    20.04    21.70    23.44    25.29    27.36    29.76    32.48    
 35.50    38.83    42.49    46.26    50.32    56.12    60.74    65.54    70.48    75.63    
 79.95    
71472.50 74405.95 77345.07 80431.88 83822.88 86568.92 88535.61 88587.07 87606.80 86646.90 
 85596.14 84655.15 83505.52 82305.39 80884.68 79068.09 76583.43 73738.64 70864.02 68158.97 
 65694.81 63608.62 61675.44 60190.75 59085.34 57907.04 56652.43 55369.29 54042.87 52771.93 
 51463.63 50056.60 48354.89 46434.58 44658.18 42864.99 41003.10 39082.83 37299.53 35601.62 
 34022.23 32651.72 31418.70 30285.80 29152.64 27996.26 26912.14 25849.23 24890.55 23931.98 
 22982.49 22004.12 21016.76 19991.27 18886.77 17829.94 16828.73 15828.80 14725.93 13596.29 
 12638.30 11659.83 10564.98 9563.09  8766.64  7968.37  7319.85  6707.14  6140.06  5626.72  
 5095.33  4615.33  4127.50  3663.69  3306.02  2981.20  2693.27  2405.29  2114.42  1897.44  
 1686.75  1507.61  1337.59  1193.83  1063.45  946.22   851.09   768.50   698.01   643.88   
 594.10   547.36   499.41   460.01   426.90   398.33   377.35   359.39   346.52   336.86   
 328.31   320.77   314.20   308.50   303.39   298.93   294.43   290.60   287.71   283.40   
 279.21   276.03   272.54   269.19   265.87   261.58   257.20   251.80   245.98   240.15   
 234.34   229.34   225.15   221.26   217.11   213.10   209.39   205.87   201.66   197.00   
 192.62   188.87   184.44   180.48   176.90   173.37   169.76   166.14   162.87   159.14   
 154.75   150.65   146.82   141.01   139.41   138.49   138.29   136.70   136.62   134.37   
 130.48   123.36   117.86   114.69   110.62   103.63   92.21    89.60    85.51    78.04    
 37.10    21.30    18.77    17.92    19.04    20.92    22.86    24.96    27.04    29.32    
 31.79    34.54    37.70    41.18    45.12    49.42    54.34    59.72    65.49    71.69    
 79.95    
71472.50 74788.85 78058.59 81702.56 84899.01 87447.16 87527.67 86493.89 85572.97 84541.77 
 83581.21 82430.16 81153.98 79414.62 76890.42 73738.28 70641.65 67906.91 65557.64 63411.01 
 61556.77 60278.45 59088.87 57892.05 56583.62 55206.53 53828.90 52367.55 50766.39 48642.78 
 46549.89 44493.16 42500.45 40560.07 38687.85 36899.86 35176.32 33548.94 31966.47 30372.08 
 28968.48 27817.40 26847.78 26058.94 25319.50 24584.47 23805.65 22978.65 22143.30 21260.06 
 20315.23 19303.75 18327.42 17399.18 16471.39 15376.40 14395.40 13455.23 12391.88 11442.40 
 10493.82 9545.25  8753.39  8111.07  7491.17  6907.37  6383.23  5874.55  5362.37  4907.50  
 4394.13  4014.84  3671.46  3338.30  3037.90  2761.62  2458.53  2226.22  2009.88  1796.50  
 1623.53  1459.37  1310.64  1190.52  1070.62  950.71   858.74   776.46   711.90   658.28   
 608.84   559.01   509.29   466.59   434.16   404.67   378.47   359.90   346.35   334.98   
 325.88   318.28   311.44   305.38   299.33   294.11   289.52   285.04   280.75   276.93   
 273.03   269.17   265.18   260.89   257.07   253.17   249.18   245.46   241.69   237.66   
 233.54   229.77   226.09   222.40   218.77   215.08   211.31   207.41   203.74   200.01   
 196.42   192.52   188.62   185.06   181.30   174.48   166.73   163.50   161.51   159.72   
 157.53   154.91   151.84   148.77   145.70   142.59   139.78   136.85   134.13   131.85   
 128.87   125.89   123.09   117.65   112.71   110.28   108.49   105.76   94.58    87.44    
 85.65    68.10    25.72    20.96    21.36    22.93    25.32    27.77    30.04    31.44    
 33.58    36.05    38.78    41.85    45.48    49.70    54.63    60.19    65.84    71.66    
 79.95    
71472.50 74789.54 78159.49 81976.54 85327.34 87500.30 87126.47 86081.91 84988.99 83917.16 
 82862.96 81599.36 80069.85 77843.82 74778.54 71569.05 68582.94 66020.70 63734.22 61624.10 
 60305.50 59212.65 58050.57 56732.71 55334.62 53864.57 52350.38 50789.58 48661.36 46517.90 
 44424.28 42386.16 40499.64 38668.47 36814.14 35019.82 33265.21 31512.62 29934.42 28668.49 
 27634.93 26787.39 26073.23 25409.95 24673.24 23936.53 23198.58 22351.82 21493.12 20578.20 
 19604.73 18644.53 17683.93 16690.62 15538.91 14523.03 13551.19 12446.74 11331.39 10424.30 
 9705.05  8918.36  8240.83  7611.50  7042.28  6541.34  6052.26  5542.10  5092.65  4565.24  
 4154.04  3804.78  3488.35  3191.97  2923.47  2634.15  2345.54  2125.14  1911.78  1731.57  
 1562.82  1406.48  1263.76  1129.38  1008.34  908.45   817.82   740.80   679.22   624.70   
 573.88   524.10   474.80   433.39   399.88   370.88   346.60   328.77   315.35   305.25   
 297.33   290.54   284.32   278.77   273.86   269.31   265.50   261.78   258.50   255.26   
 252.19   249.04   246.11   243.51   239.86   236.23   233.58   230.92   228.23   225.51   
 222.13   218.56   215.50   212.34   209.11   205.78   202.39   199.18   196.01   192.71   
 189.42   186.11   182.67   179.19   175.89   172.44   166.39   158.16   155.37   153.12   
 151.38   149.78   148.10   145.73   143.12   140.60   138.13   135.82   133.48   131.21   
 128.54   126.09   124.10   122.26   120.39   118.26   117.13   114.98   107.04   92.54    
 90.08    84.77    43.39    22.80    24.10    25.08    27.23    30.04    32.92    35.75    
 38.40    41.02    43.61    46.23    49.24    52.87    57.39    62.71    68.47    74.63    
 79.95    
71472.50 74729.11 78081.58 81671.62 84687.13 86591.36 86101.77 85084.34 84030.54 83051.34 
 82116.18 80893.52 79443.54 77478.73 74661.21 71430.42 68374.64 65729.36 63505.74 61297.99 
 59657.94 58484.36 57370.12 56165.63 54869.64 53584.73 52252.56 50777.95 49093.48 47001.16 
 44991.59 43073.48 41183.81 39290.45 37503.53 35768.82 34168.70 32565.70 30951.29 29454.48 
 28199.14 27111.64 26203.06 25414.40 24678.07 23930.36 23135.21 22312.04 21464.97 20566.39 
 19610.79 18620.67 17665.68 16762.25 15827.77 14731.35 13787.30 12856.42 11779.64 10797.11 
 9815.34  9099.58  8343.11  7728.40  7125.85  6576.95  6077.69  5580.08  5114.47  4639.92  
 4174.10  3802.80  3473.54  3156.07  2877.85  2605.61  2325.43  2100.32  1883.31  1699.55  
 1535.67  1387.16  1246.77  1129.35  1012.09  894.84   810.48   736.02   677.10   624.04   
 574.69   521.84   476.02   437.50   406.01   377.29   356.80   341.51   330.19   320.49   
 312.32   305.15   298.97   293.63   288.42   284.07   279.57   276.13   273.04   270.00   
 267.44   264.14   261.45   258.88   255.89   252.81   249.68   246.57   243.31   239.63   
 235.94   232.63   229.29   226.03   222.86   219.44   216.05   212.66   208.94   205.38   
 201.82   198.00   194.09   190.14   186.41   178.67   171.12   167.57   164.83   162.18   
 159.49   157.10   154.59   151.98   149.42   146.47   143.73   140.83   137.96   134.58   
 131.92   129.28   124.72   120.13   116.47   114.98   113.81   111.38   101.56   98.27    
 91.77    53.73    28.71    28.37    29.00    30.84    33.65    36.66    39.65    42.46    
 45.12    47.73    50.28    52.81    55.55    58.72    62.60    67.06    71.96    77.17    
 79.95    
71472.50 74434.05 77360.96 80680.94 83710.73 86085.28 86530.19 85730.18 84779.11 83754.09 
 82669.59 81533.81 80374.88 78902.66 77151.37 74697.50 71904.78 68994.68 66112.32 63562.74 
 61444.22 59493.59 57815.22 56605.94 55549.46 54464.96 53332.85 52157.23 50954.41 49770.54 
 48532.50 47033.32 45313.62 43552.18 41924.04 40275.74 38579.09 36778.21 35124.03 33596.80 
 32184.87 30899.27 29740.85 28676.26 27565.62 26557.80 25612.73 24659.56 23706.39 22752.76 
 21760.32 20780.86 19789.46 18765.75 17731.12 16681.38 15707.71 14732.96 13593.64 12577.26 
 11692.87 10669.08 9598.67  8713.08  8010.93  7302.74  6732.05  6168.76  5662.77  5154.39  
 4646.00  4204.56  3707.03  3340.21  3027.34  2737.22  2447.28  2174.94  1934.26  1737.81  
 1548.63  1384.32  1240.37  1108.53  986.63   879.13   790.37   715.61   657.23   606.39   
 558.65   508.32   464.40   426.54   396.81   371.28   351.71   337.45   326.35   316.19   
 308.14   300.83   294.51   289.01   283.86   279.44   275.03   271.56   267.97   264.56   
 261.31   258.32   255.42   252.50   248.64   244.64   239.48   234.33   229.17   223.76   
 219.43   215.58   211.95   208.48   205.16   201.87   198.98   195.43   191.68   187.60   
 183.84   179.64   176.05   172.58   169.28   165.99   162.93   160.33   157.82   154.72   
 150.31   145.71   139.87   138.47   137.16   137.02   136.88   138.95   138.14   135.73   
 131.68   125.33   122.07   119.19   115.97   113.41   107.54   104.35   97.13    56.46    
 35.61    34.50    34.65    35.45    37.93    41.00    44.05    47.02    49.81    52.54    
 55.17    57.74    60.22    62.81    65.56    68.65    72.07    75.67    79.56    83.56    
 79.95    
71472.50 73861.01 76335.89 79095.63 81771.92 83947.02 85498.88 85459.21 84549.17 83541.71 
 82572.33 81307.66 80137.73 78797.37 77463.41 75965.98 74347.09 72450.99 70420.03 68045.77 
 65532.22 63118.53 60752.41 58627.90 56684.43 54839.73 53159.33 51799.32 50713.79 49786.39 
 48891.60 48144.82 47271.09 46485.66 45623.21 44802.90 43854.50 42613.09 41345.63 40097.83 
 38869.67 37618.38 36328.00 34955.60 33582.46 32139.31 30761.71 29450.81 28253.34 27150.20 
 26027.47 24975.34 24021.06 23048.27 22005.33 20903.42 19828.22 18753.25 17705.52 16630.77 
 15501.29 14428.85 13377.21 12286.93 11267.79 10249.32 9230.85  8250.53  7354.16  6488.48  
 5784.82  5217.03  4691.58  4120.91  3610.44  3141.93  2724.65  2399.68  2118.52  1869.67  
 1636.09  1450.37  1283.18  1157.47  1032.06  906.65   810.54   727.01   663.63   610.83   
 558.20   503.45   456.29   419.21   389.52   364.81   347.14   332.04   319.90   308.12   
 297.79   289.12   281.87   275.70   269.70   264.22   259.22   254.89   250.18   245.98   
 241.78   238.05   234.24   229.58   226.02   222.42   219.08   216.00   212.71   209.33   
 206.28   203.37   199.44   194.31   189.60   184.89   179.88   174.96   170.26   165.89   
 161.86   158.85   156.45   154.09   151.86   149.72   147.54   145.44   143.43   141.37   
 139.24   137.14   134.91   133.20   131.44   126.06   120.65   117.50   112.28   105.97   
 100.37   94.54    94.29    93.75    72.54    46.17    42.04    40.23    39.26    38.67    
 40.45    43.28    46.05    48.83    51.49    54.05    56.57    59.06    61.46    63.76    
 65.97    68.29    70.68    73.17    75.83    78.67    81.55    84.50    87.42    90.40    
 79.95    
71472.50 73143.02 74835.69 76776.23 78797.99 80832.84 82362.71 83582.69 84370.96 84223.71 
 83429.72 82112.69 80980.04 79766.65 78578.96 77279.12 75955.72 74595.40 73059.42 71650.72 
 70256.54 68768.95 67215.10 65603.24 63983.10 62312.72 60634.06 58909.50 57216.36 55569.34 
 53911.35 52248.06 50508.22 48834.10 47168.52 45576.23 43980.58 42429.20 41032.31 39655.86 
 38372.88 37165.62 35883.48 34775.76 33726.56 32731.45 31740.29 30754.87 29599.99 28468.33 
 27344.63 26240.01 25120.58 24048.55 22975.92 21845.79 20695.49 19597.30 18540.29 17526.59 
 16538.77 15686.85 14792.25 13953.00 13103.98 12296.10 11449.27 10621.32 9802.47  8991.92  
 8189.88  7445.26  6697.39  6002.49  5292.50  4564.77  3896.62  3386.65  2950.26  2548.90  
 2148.49  1832.48  1582.27  1368.14  1205.92  1062.64  943.58   846.11   764.08   699.33   
 637.93   578.43   526.90   483.05   444.85   414.23   387.49   364.99   345.36   328.99   
 315.28   302.09   290.31   280.14   271.21   262.99   255.42   248.53   242.36   236.53   
 230.71   224.89   219.71   214.96   210.68   206.66   202.43   198.62   194.67   190.95   
 187.39   184.27   180.77   177.69   174.60   171.35   167.89   163.98   158.42   152.10   
 145.56   139.18   132.76   126.70   121.15   116.10   111.21   106.89   102.35   97.53    
 92.68    87.51    80.89    77.56    74.02    64.65    41.00    30.44    29.92    31.77    
 34.05    36.35    38.68    41.05    43.43    45.80    48.17    50.53    52.86    55.11    
 57.33    59.49    61.59    63.70    65.73    67.75    69.73    71.81    73.84    75.89    
 77.90    80.05    82.29    84.62    86.97    89.34    91.74    93.98    96.15    98.33    
 79.95    
71472.50 72318.36 73294.64 74298.93 75318.82 76332.21 77252.30 77887.19 78311.88 78792.28 
 78996.40 79209.60 79184.45 79176.54 79007.17 78459.32 77741.16 76843.16 75904.97 74766.62 
 73472.66 72142.69 70643.25 69453.84 68190.13 66841.14 65537.67 64180.50 62715.56 61157.36 
 59563.68 58008.11 56379.87 54739.42 53171.95 51474.31 49748.67 48076.68 46547.86 45054.35 
 43480.54 41928.98 40462.18 38980.79 37476.19 35979.09 34482.05 32961.92 31545.51 30079.88 
 28644.73 27190.54 25809.14 24443.82 23167.04 21906.44 20745.95 19620.94 18557.78 17441.24 
 16320.43 15275.58 14301.42 13339.48 12408.39 11542.92 10679.05 9815.19  8940.48  8105.46  
 7338.63  6636.72  5986.26  5353.86  4789.40  4307.77  3837.44  3403.45  2986.55  2616.96  
 2315.23  2046.83  1799.76  1585.43  1409.30  1240.95  1113.23  985.89   858.55   767.39   
 689.10   614.36   547.79   491.71   442.39   399.95   364.83   333.93   308.78   285.65   
 265.14   246.41   230.22   214.77   201.42   188.84   178.48   169.28   161.56   154.57   
 148.13   141.49   135.43   129.42   124.01   118.61   113.21   108.72   104.27   99.86    
 95.80    92.31    88.08    84.00    79.83    75.31    69.49    61.07    51.42    42.54    
 36.00    30.92    26.16    23.89    24.31    25.83    27.47    29.15    30.85    32.61    
 34.43    36.26    38.10    39.98    41.88    43.78    45.68    47.56    49.47    51.40    
 53.31    55.19    57.05    58.97    60.88    62.70    64.53    66.39    68.24    70.06    
 71.87    73.72    75.54    77.40    79.25    81.09    83.01    84.94    86.78    88.64    
 90.52    92.45    94.39    96.23    98.10    99.97    101.78   103.58   105.27   106.99   
 79.95    
71472.50 71476.29 71631.34 71807.90 71944.92 71763.83 71297.34 70827.28 70313.55 69791.35 
 69066.52 68343.30 67675.76 67012.80 66286.28 65650.56 64997.65 64299.16 63580.25 62801.56 
 61974.50 61035.67 60055.83 58960.31 57859.52 56691.12 55518.01 54391.67 53211.19 51879.22 
 50307.24 48899.06 47349.93 45747.50 44331.18 42789.82 40933.04 39287.56 37537.77 35805.92 
 34046.55 32322.54 30658.52 28979.34 27248.34 25623.99 24052.53 22628.69 21250.17 19792.60 
 18453.18 17115.30 15809.18 14531.23 13352.88 12263.09 11255.51 10248.87 9264.61  8328.96  
 7504.67  6763.78  6060.73  5403.62  4829.55  4261.72  3770.05  3260.34  2830.96  2445.60  
 2105.84  1801.24  1515.10  1261.76  1053.51  845.81   678.35   540.32   428.98   334.56   
 255.07   182.17   134.67   104.57   74.64    45.70    23.15    11.89    7.91     7.41     
 7.03     7.13     7.38     7.65     7.87     7.32     7.52     7.91     8.36     8.85     
 9.44     10.08    10.75    11.46    12.23    13.08    13.95    14.87    15.80    16.78    
 17.78    18.92    20.09    21.31    22.52    23.78    25.13    26.54    27.98    29.47    
 31.00    32.59    34.23    35.97    37.67    39.42    41.24    43.09    44.95    46.80    
 48.68    50.57    52.50    54.41    56.33    58.22    60.14    62.04    63.90    65.74    
 67.51    69.26    71.00    72.75    74.45    76.11    77.74    79.26    80.72    82.14    
 83.53    84.87    86.11    87.28    88.39    89.43    90.45    91.37    92.25    93.07    
 93.87    94.65    95.37    96.04    96.70    97.39    97.99    98.58    99.08    99.48    
 99.82    100.08   100.23   100.23   100.07   99.78    99.29    98.63    97.89    97.02    
 79.95    
71472.50 70559.36 69850.21 69161.64 68538.74 67676.72 66860.88 65869.77 64911.64 63747.04 
 62602.65 61486.16 60360.60 59569.85 57757.09 55141.78 52128.66 49279.90 46507.29 44564.50 
 42416.48 39758.92 36900.82 33972.39 31712.02 29517.70 26665.97 23814.25 20968.08 18701.08 
 16903.71 15036.11 12741.39 10791.00 9163.92  7959.06  6664.31  5601.00  4519.05  3692.77  
 2808.64  1926.97  1383.75  1007.81  715.31   508.30   381.36   302.50   244.45   186.62   
 152.09   126.77   104.15   89.00    78.55    65.57    55.16    47.04    41.20    35.33    
 31.08    28.15    25.87    23.89    21.74    19.60    16.82    13.21    11.22    10.66    
 10.27    9.84     9.35     8.72     8.20     7.78     7.44     7.02     6.63     6.21     
 5.84     5.46     5.10     4.77     4.50     4.51     4.78     5.13     5.52     5.95     
 6.45     6.97     7.50     8.11     8.76     9.45     10.17    10.95    11.78    12.67    
 13.58    14.54    15.55    16.62    17.76    18.90    20.09    21.33    22.64    23.97    
 25.37    26.85    28.39    29.96    31.55    33.21    34.93    36.69    38.45    40.26    
 42.15    44.12    46.13    48.10    50.10    52.12    54.20    56.31    58.43    60.55    
 62.67    64.78    66.90    68.97    71.04    73.10    75.18    77.21    79.13    81.05    
 82.93    84.76    86.51    88.21    89.86    91.51    93.08    94.61    96.01    97.38    
 98.70    99.88    101.00   102.07   103.04   103.92   104.67   105.29   105.85   106.31   
 106.65   106.90   107.11   107.27   107.42   107.45   107.45   107.51   107.32   107.03   
 106.48   105.77   104.93   103.86   102.61   101.12   99.37    97.34    95.23    92.97    
 79.95    
71472.50 69765.43 68294.27 67282.06 66587.00 66028.87 64967.20 63571.46 60073.19 55082.10 
 51009.30 47347.41 42917.90 39088.06 35004.68 30117.72 26002.54 23609.93 19261.21 15263.51 
 13189.34 10659.32 8123.68  5588.04  2666.78  1209.80  845.46   492.40   359.94   273.08   
 213.18   163.87   132.31   113.93   95.69    87.27    77.55    67.52    58.47    51.93    
 46.11    40.94    37.18    33.96    31.10    28.76    26.63    24.19    21.76    19.71    
 17.75    15.73    12.63    10.76    9.69     9.21     8.88     8.62     8.34     8.07     
 7.79     7.53     7.30     7.07     6.85     6.63     6.43     6.24     6.05     5.87     
 5.69     5.53     5.36     5.19     5.01     4.85     4.71     4.56     4.45     4.36     
 4.30     4.27     4.26     4.36     4.58     4.89     5.27     5.67     6.13     6.61     
 7.11     7.68     8.30     9.00     9.72     10.52    11.37    12.24    13.17    14.16    
 15.19    16.28    17.44    18.67    19.96    21.29    22.65    24.10    25.59    27.10    
 28.67    30.32    32.02    33.74    35.50    37.34    39.21    41.12    43.08    45.09    
 47.13    49.27    51.39    53.59    55.80    57.98    60.28    62.63    64.97    67.35    
 69.70    72.06    74.46    76.93    79.40    81.85    84.30    86.77    89.22    91.64    
 93.98    96.29    98.60    100.88   103.13   105.28   107.36   109.33   111.18   112.91   
 114.56   116.08   117.45   118.72   119.88   120.77   121.43   121.92   122.20   122.27   
 122.29   122.01   121.61   121.10   120.42   119.56   118.96   118.21   116.97   115.58   
 114.04   112.24   110.40   108.18   105.82   103.07   100.07   96.81    93.30    89.73    
 79.95    
71472.50 69086.58 67119.60 65920.44 65122.98 64472.85 59969.85 53573.74 49299.59 42965.15 
 37971.56 31377.50 26387.42 21397.34 16419.94 12848.66 8758.27  6103.10  3447.92  809.76   
 458.78   330.79   268.20   205.82   168.56   139.41   112.72   91.17    73.45    61.56    
 51.70    43.02    36.38    31.14    27.22    24.58    22.61    21.01    19.59    18.24    
 17.17    16.10    14.30    12.09    10.71    9.95     9.53     9.23     8.93     8.62     
 8.23     7.80     7.40     7.05     6.80     6.63     6.49     6.37     6.24     6.08     
 5.90     5.73     5.56     5.39     5.25     5.09     4.95     4.81     4.66     4.52     
 4.39     4.27     4.16     4.07     3.97     3.89     3.81     3.76     3.73     3.72     
 3.74     3.77     3.86     3.98     4.15     4.38     4.65     4.94     5.28     5.66     
 6.09     6.59     7.10     7.67     8.30     8.97     9.69     10.44    11.26    12.13    
 13.01    13.95    14.96    16.02    17.14    18.25    19.42    20.66    21.97    23.28    
 24.64    26.05    27.57    29.08    30.62    32.21    33.86    35.49    37.13    38.84    
 40.60    42.45    44.35    46.24    48.13    50.13    52.18    54.31    56.47    58.68    
 60.96    63.30    65.75    68.23    70.76    73.36    76.08    78.86    81.65    84.49    
 87.50    90.47    93.48    96.46    99.40    102.37   105.23   108.02   110.67   113.26   
 115.77   118.09   120.24   122.35   124.26   125.97   127.51   128.70   129.71   130.48   
 130.92   131.11   130.94   130.39   129.53   128.35   126.84   125.14   123.20   121.70   
 119.73   117.08   114.08   110.76   107.32   103.60   99.62    95.36    90.79    86.05    
 79.95    
71472.50 68587.11 66382.70 65106.52 64344.66 58872.48 52442.66 46364.99 40499.70 32749.69 
 27488.80 20453.05 15113.29 10475.80 5845.77  1215.75  731.58   289.60   234.99   196.79   
 149.25   126.72   104.49   82.26    72.47    61.30    52.37    45.25    42.60    38.48    
 34.24    30.41    28.80    26.85    24.14    21.78    20.61    18.77    16.72    15.25    
 14.85    14.34    13.58    12.98    12.38    11.48    10.59    9.91     9.19     8.43     
 7.70     6.91     6.17     5.73     5.60     5.53     5.43     5.25     5.08     4.93     
 4.77     4.60     4.45     4.31     4.17     4.04     3.94     3.84     3.75     3.68     
 3.61     3.56     3.52     3.48     3.46     3.44     3.43     3.42     3.42     3.42     
 3.45     3.51     3.60     3.71     3.86     4.02     4.23     4.44     4.68     4.94     
 5.24     5.56     5.94     6.34     6.79     7.29     7.83     8.43     9.09     9.80     
 10.58    11.39    12.24    13.15    14.12    15.11    16.15    17.27    18.42    19.62    
 20.85    22.12    23.46    24.82    26.22    27.68    29.19    30.71    32.33    34.00    
 35.68    37.43    39.22    41.06    42.91    44.78    46.73    48.73    50.73    52.79    
 54.79    56.86    58.97    61.20    63.53    65.96    68.46    71.12    73.86    76.66    
 79.60    82.66    85.79    88.97    92.18    95.43    98.70    102.08   105.47   108.78   
 111.97   114.98   117.85   120.59   123.15   125.47   127.55   129.43   131.15   132.65   
 133.87   134.69   135.18   135.23   134.80   133.89   132.46   130.51   128.22   125.51   
 122.53   119.22   115.45   111.38   108.07   103.55   98.83    93.92    88.79    83.38    
 79.95    
71472.50 68305.09 65795.88 64319.97 63022.76 55698.18 49348.05 42156.65 34769.36 28272.98 
 21776.61 15286.05 9513.35  5141.82  806.52   500.01   195.98   152.78   102.85   65.54    
 40.34    28.36    20.77    16.31    13.59    11.74    10.47    9.68     9.19     8.76     
 8.44     8.30     8.19     8.03     7.40     6.49     5.96     5.66     5.44     5.26     
 5.14     5.03     4.85     4.65     4.52     4.42     4.32     4.20     4.12     4.04     
 3.96     3.88     3.79     3.69     3.63     3.59     3.55     3.49     3.46     3.44     
 3.41     3.36     3.31     3.27     3.23     3.21     3.19     3.17     3.16     3.14     
 3.13     3.13     3.13     3.13     3.14     3.15     3.15     3.16     3.17     3.20     
 3.25     3.30     3.38     3.47     3.58     3.71     3.85     4.01     4.20     4.40     
 4.63     4.89     5.18     5.50     5.84     6.21     6.61     7.08     7.58     8.13     
 8.71     9.32     9.97     10.69    11.47    12.29    13.14    14.03    15.00    15.99    
 17.02    18.08    19.21    20.33    21.48    22.68    23.96    25.27    26.58    27.93    
 29.38    30.89    32.47    34.11    35.77    37.58    39.44    41.38    43.37    45.40    
 47.47    49.62    51.86    54.13    56.39    58.75    61.17    63.65    66.14    68.73    
 71.48    74.31    77.27    80.34    83.52    86.80    90.14    93.58    97.02    100.54   
 104.25   107.94   111.54   115.20   118.65   121.86   124.85   127.49   129.90   131.95   
 133.77   135.36   136.56   137.32   137.53   137.18   136.26   134.67   132.50   129.77   
 126.51   122.76   118.66   114.10   109.34   104.31   99.11    93.87    88.48    83.05    
 79.95    
71472.50 68167.90 65550.59 64061.14 62349.10 54598.05 48168.35 40800.38 32420.90 26782.93 
 18661.55 13146.77 7728.63  2311.23  1526.74  791.69   56.64    29.93    18.16    15.08    
 13.21    11.90    10.44    9.52     8.77     7.92     7.24     6.70     6.20     5.78     
 5.50     5.25     5.09     4.92     4.77     4.64     4.54     4.55     4.67     4.74     
 4.76     4.80     4.83     4.81     4.70     4.59     4.49     4.38     4.32     4.27     
 4.14     4.07     3.97     3.93     3.90     3.83     3.78     3.74     3.71     3.66     
 3.61     3.58     3.56     3.53     3.47     3.44     3.43     3.42     3.40     3.37     
 3.35     3.31     3.29     3.28     3.29     3.30     3.30     3.31     3.32     3.33     
 3.36     3.42     3.48     3.58     3.65     3.75     3.87     4.01     4.17     4.35     
 4.55     4.78     5.05     5.33     5.64     5.99     6.39     6.82     7.28     7.75     
 8.27     8.87     9.50     10.17    10.88    11.67    12.50    13.35    14.22    15.17    
 16.15    17.14    18.15    19.22    20.35    21.48    22.61    23.74    24.95    26.18    
 27.47    28.79    30.17    31.64    33.20    34.81    36.55    38.40    40.31    42.30    
 44.32    46.38    48.56    50.83    53.14    55.48    57.93    60.36    62.87    65.42    
 67.99    70.62    73.42    76.34    79.39    82.63    85.84    89.23    92.63    96.10    
 99.67    103.36   107.05   110.65   114.25   117.70   120.83   123.66   126.29   128.60   
 130.57   132.21   133.60   134.55   134.98   134.81   134.04   132.62   130.58   127.91   
 124.68   120.94   117.03   112.71   108.35   103.78   99.27    94.75    90.19    85.49    
 79.95    
