IESNA:LM-63-2002
[TEST] 1
[TESTLAB] AOK
[TESTDATE] 2022-05-19
[ISSUEDATE] 2022-05-19 19:24:23
[NEARFIELD] 
[LAMPPOSITION] 0,0
[OTHER] EVERFINE GO-2000A_V1 SYSTEM
[MANUFAC] AOK
[LUMCAT] A
[LUMINAIRE] AOK-800WiSF-NV-S5-00-5070-30D-P
[LAMPCAT] B
[LAMP] 5050
[BALLAST] E
[BALLASTCAT] F
[OTHER] 
[OTHER] Gamma(deg)    Fz(lm)      Ft(lm)     %Lum    %Lamp
[OTHER]   0- 10     22344.40    22344.40    20.03    20.03
[OTHER]  10- 20     36187.38    58531.78    52.46    52.46
[OTHER]  20- 30     21453.61    79985.39    71.69    71.69
[OTHER]  30- 40     13604.02    93589.41    83.89    83.89
[OTHER]  40- 50      8265.82   101855.24    91.30    91.30
[OTHER]  50- 60      4556.32   106411.55    95.38    95.38
[OTHER]  60- 70      2523.27   108934.82    97.64    97.64
[OTHER]  70- 80      1243.59   110178.42    98.76    98.76
[OTHER]  80- 90       520.58   110698.99    99.22    99.22
[OTHER]  90-100       248.67   110947.66    99.45    99.45
[OTHER] 100-110       158.88   111106.55    99.59    99.59
[OTHER] 110-120       119.24   111225.78    99.70    99.70
[OTHER] 120-130        90.33   111316.11    99.78    99.78
[OTHER] 130-140        67.16   111383.27    99.84    99.84
[OTHER] 140-150        55.19   111438.46    99.89    99.89
[OTHER] 150-160        56.01   111494.47    99.94    99.94
[OTHER] 160-170        51.36   111545.84    99.98    99.98
[OTHER] 170-180        20.05   111565.89   100.00   100.00
[OTHER] 
TILT=NONE
1 1.1157e+005 1 181 25 1 2 0.150 0.200 0.000
1.000 1 764.865
0.0    1.0    2.0    3.0    4.0    5.0    6.0    7.0    8.0    9.0    
 10.0   11.0   12.0   13.0   14.0   15.0   16.0   17.0   18.0   19.0   
 20.0   21.0   22.0   23.0   24.0   25.0   26.0   27.0   28.0   29.0   
 30.0   31.0   32.0   33.0   34.0   35.0   36.0   37.0   38.0   39.0   
 40.0   41.0   42.0   43.0   44.0   45.0   46.0   47.0   48.0   49.0   
 50.0   51.0   52.0   53.0   54.0   55.0   56.0   57.0   58.0   59.0   
 60.0   61.0   62.0   63.0   64.0   65.0   66.0   67.0   68.0   69.0   
 70.0   71.0   72.0   73.0   74.0   75.0   76.0   77.0   78.0   79.0   
 80.0   81.0   82.0   83.0   84.0   85.0   86.0   87.0   88.0   89.0   
 90.0   91.0   92.0   93.0   94.0   95.0   96.0   97.0   98.0   99.0   
 100.0  101.0  102.0  103.0  104.0  105.0  106.0  107.0  108.0  109.0  
 110.0  111.0  112.0  113.0  114.0  115.0  116.0  117.0  118.0  119.0  
 120.0  121.0  122.0  123.0  124.0  125.0  126.0  127.0  128.0  129.0  
 130.0  131.0  132.0  133.0  134.0  135.0  136.0  137.0  138.0  139.0  
 140.0  141.0  142.0  143.0  144.0  145.0  146.0  147.0  148.0  149.0  
 150.0  151.0  152.0  153.0  154.0  155.0  156.0  157.0  158.0  159.0  
 160.0  161.0  162.0  163.0  164.0  165.0  166.0  167.0  168.0  169.0  
 170.0  171.0  172.0  173.0  174.0  175.0  176.0  177.0  178.0  179.0  
 180.0  
0.0    15.0   30.0   45.0   60.0   75.0   90.0   105.0  120.0  135.0  
 150.0  165.0  180.0  195.0  210.0  225.0  240.0  255.0  270.0  285.0  
 300.0  315.0  330.0  345.0  360.0  
256819.66 253416.29 250691.53 250346.66 249908.32 227730.76 214072.77 199696.57 181046.06 164594.68 
 147380.10 130946.53 117422.90 103931.68 90440.46 83934.53 76923.57 69272.60 49702.60 38134.28 
 26381.56 20652.40 12948.95 6795.08  658.89   101.59   68.17    39.62    28.58    23.96    
 20.93    17.96    16.53    15.40    13.93    12.30    11.17    10.08    9.39     8.78     
 8.35     8.18     7.89     7.48     7.12     6.77     6.54     6.18     5.90     5.77     
 5.68     5.48     5.30     5.11     5.08     4.90     4.85     4.75     4.70     4.65     
 4.64     4.63     4.59     4.58     4.57     4.56     4.55     4.54     4.53     4.51     
 4.47     4.43     4.38     4.32     4.26     4.19     4.13     4.07     4.01     3.97     
 3.94     3.91     3.88     3.87     3.86     3.86     3.89     3.97     4.08     4.20     
 4.34     4.47     4.64     4.81     5.00     5.20     5.42     5.67     5.96     6.27     
 6.60     6.96     7.33     7.73     8.16     8.62     9.09     9.58     10.10    10.69    
 11.32    12.02    12.77    13.57    14.44    15.38    16.36    17.42    18.57    19.81    
 21.14    22.53    24.01    25.65    27.37    29.24    31.27    33.53    35.92    38.42    
 41.09    43.98    47.06    50.39    53.96    57.65    61.59    65.86    70.54    75.55    
 80.90    86.90    93.40    100.41   107.85   115.84   124.44   133.47   142.79   152.75   
 163.00   173.35   183.54   193.68   204.09   214.33   223.83   232.63   241.87   251.10   
 258.70   265.86   272.38   278.79   284.16   288.19   290.78   292.19   292.29   291.08   
 288.18   284.36   280.00   274.88   269.31   262.31   254.05   244.95   235.10   223.66   
 211.16   
256819.66 253092.65 249695.26 247998.40 247203.26 233440.03 219673.68 205571.59 189956.08 173609.79 
 155307.61 138911.65 123205.26 97179.15 89616.42 82288.28 74832.09 67545.51 60234.54 43064.08 
 33022.03 25661.28 18305.17 11542.62 7877.17  4211.72  578.39   445.83   313.27   181.48   
 127.49   85.28    100.81   91.76    49.56    31.55    24.01    20.19    18.13    16.61    
 15.55    14.68    13.74    12.85    11.91    11.14    10.55    9.77     8.81     8.19     
 7.67     7.34     7.13     6.87     6.61     6.43     6.32     6.19     6.03     5.87     
 5.70     5.55     5.43     5.32     5.21     5.10     5.01     4.89     4.75     4.61     
 4.48     4.37     4.27     4.17     4.08     3.98     3.90     3.81     3.72     3.66     
 3.61     3.60     3.60     3.61     3.63     3.67     3.73     3.82     3.90     4.02     
 4.15     4.27     4.41     4.58     4.78     4.99     5.22     5.46     5.74     6.04     
 6.37     6.70     7.07     7.44     7.86     8.29     8.78     9.27     9.80     10.36    
 10.96    11.60    12.33    13.12    13.92    14.84    15.83    16.87    17.94    19.09    
 20.36    21.78    23.31    24.90    26.58    28.46    30.46    32.61    34.89    37.37    
 39.97    42.72    45.72    48.89    52.23    55.87    59.79    64.04    68.46    73.31    
 78.76    84.56    90.86    97.70    105.09   113.08   122.14   131.21   140.56   150.69   
 160.82   171.24   181.42   191.89   202.29   212.41   222.36   231.70   240.74   248.96   
 256.88   264.31   271.28   278.14   283.29   287.72   290.78   292.16   292.23   291.14   
 288.71   285.72   281.90   277.31   271.80   265.17   257.55   248.95   239.29   228.55   
 211.16   
256819.66 253218.27 249854.97 246455.08 244854.92 242223.73 230750.97 209520.22 194693.13 179984.50 
 160938.23 147626.89 129063.86 111679.23 94308.11 76936.99 69066.68 61810.28 54416.09 47718.76 
 41467.23 30245.92 23879.99 19305.18 13874.47 10447.23 7712.93  4985.67  1205.03  801.58   
 440.66   268.36   194.78   159.77   128.00   103.77   79.62    66.32    53.45    43.74    
 38.42    33.45    29.83    26.28    24.20    22.66    20.78    19.28    17.82    16.43    
 13.96    12.62    11.84    10.93    9.79     8.85     8.62     8.61     8.54     8.27     
 7.91     7.50     7.19     6.95     6.75     6.57     6.38     6.21     6.03     5.86     
 5.65     5.43     5.21     5.01     4.81     4.59     4.39     4.20     4.02     3.87     
 3.73     3.62     3.57     3.56     3.58     3.65     3.73     3.84     3.95     4.08     
 4.21     4.37     4.53     4.73     4.94     5.16     5.40     5.66     5.94     6.24     
 6.56     6.92     7.28     7.66     8.08     8.54     9.02     9.51     10.02    10.59    
 11.22    11.90    12.62    13.41    14.26    15.17    16.12    17.15    18.29    19.54    
 20.86    22.26    23.77    25.42    27.15    28.95    30.86    33.00    35.26    37.66    
 40.17    42.84    45.63    48.67    52.02    55.64    59.46    63.56    67.94    72.69    
 77.85    83.72    90.15    97.01    104.31   111.98   120.07   129.14   138.74   148.61   
 158.45   168.41   178.91   189.45   199.67   209.78   219.79   229.39   239.02   248.65   
 257.20   265.27   272.80   279.28   284.72   288.84   291.91   293.65   294.78   293.94   
 292.01   289.34   286.37   282.43   277.10   270.43   262.60   253.72   244.54   233.61   
 211.16   
256819.66 253556.32 250368.62 246894.64 241934.75 236441.05 230953.37 225973.00 210233.93 189667.83 
 174829.35 160381.47 141797.38 126295.95 110412.68 94107.66 80236.09 69186.65 53412.32 45017.77 
 39194.52 34442.81 30574.34 27447.57 24457.07 21450.74 16683.62 13107.83 10993.09 8286.84  
 6563.36  4825.35  3457.22  2089.09  730.31   488.60   334.02   255.85   178.10   144.31   
 116.10   94.50    78.58    67.15    57.65    49.78    42.84    38.25    34.51    30.76    
 27.96    26.04    24.26    22.23    19.37    16.01    12.70    12.11    11.65    11.29    
 10.70    10.19    9.71     9.29     8.91     8.54     8.15     7.86     7.58     7.28     
 6.97     6.69     6.41     6.13     5.82     5.49     5.15     4.78     4.43     4.11     
 3.82     3.58     3.40     3.38     3.42     3.50     3.60     3.72     3.85     3.99     
 4.15     4.32     4.49     4.69     4.91     5.14     5.38     5.63     5.91     6.23     
 6.55     6.88     7.25     7.64     8.07     8.54     9.03     9.53     10.07    10.67    
 11.29    11.95    12.70    13.48    14.31    15.24    16.25    17.30    18.37    19.55    
 20.82    22.23    23.73    25.29    26.88    28.63    30.56    32.57    34.65    36.89    
 39.31    41.85    44.60    47.48    50.61    53.90    57.59    61.56    65.75    70.37    
 75.56    81.15    87.24    93.84    101.00   108.83   117.61   126.40   135.67   145.57   
 155.44   165.86   176.12   186.75   197.36   207.83   218.37   228.41   238.44   247.70   
 256.35   264.37   271.48   277.95   283.34   287.70   291.33   293.38   294.40   294.48   
 293.53   291.50   288.62   284.62   279.50   272.67   264.64   256.00   246.55   236.08   
 211.16   
256819.66 254151.67 251129.44 247014.62 240515.58 233000.92 226309.54 219279.36 211468.36 202172.13 
 191265.61 175872.21 156463.56 139187.57 123063.02 108743.16 94441.98 80140.80 68518.94 59440.56 
 48941.59 42539.52 36791.37 32386.04 28434.64 23979.10 21535.02 19560.59 17713.36 15999.56 
 14520.16 13047.51 11493.41 9865.36  8236.48  6836.63  5352.67  4275.89  3419.31  2746.97  
 2109.22  1508.04  1159.14  813.29   467.43   322.09   241.55   192.39   152.40   123.35   
 105.76   88.28    79.03    67.73    57.93    51.21    45.82    40.26    35.17    31.87    
 28.80    25.71    22.78    17.97    15.06    13.80    13.14    12.40    11.55    10.82    
 10.23    9.63     9.14     8.65     8.12     7.64     7.17     6.66     6.08     5.45     
 4.85     4.32     3.87     3.68     3.67     3.77     3.89     4.02     4.16     4.32     
 4.49     4.67     4.85     5.06     5.29     5.51     5.77     6.04     6.34     6.66     
 6.99     7.33     7.70     8.11     8.54     9.01     9.49     9.99     10.55    11.16    
 11.80    12.51    13.26    14.06    14.92    15.85    16.81    17.83    18.94    20.13    
 21.38    22.73    24.16    25.66    27.26    28.97    30.82    32.78    34.85    37.06    
 39.34    41.81    44.48    47.35    50.42    53.69    57.31    61.35    65.79    70.60    
 75.84    81.49    87.81    94.83    102.37   110.34   118.83   127.99   137.56   147.44   
 157.71   168.01   178.45   189.02   199.54   209.75   219.93   229.86   239.78   249.71   
 257.96   265.59   272.48   278.70   284.16   289.01   292.54   294.95   296.21   296.48   
 296.18   293.89   290.34   285.87   280.56   274.15   266.96   258.99   250.05   240.33   
 211.16   
256819.66 255089.27 252801.81 249043.58 241724.46 234405.33 227078.23 218931.35 210091.43 199286.01 
 187928.10 176038.31 162358.29 148872.35 134036.33 120718.20 107318.41 95141.10 83734.25 74084.90 
 65566.40 58297.33 51647.26 45581.49 41506.88 38037.63 34914.03 31367.01 28634.42 26209.74 
 23913.57 21619.51 19604.16 17966.18 16390.50 14820.30 13339.50 12122.99 10998.68 9882.32  
 8898.09  7984.40  7124.58  6362.41  5634.76  5031.71  4389.20  3832.98  3322.52  2864.96  
 2407.39  1950.57  1569.20  1219.87  945.39   716.69   564.96   443.65   363.49   298.54   
 245.09   191.78   153.53   123.93   102.81   85.73    71.67    59.14    49.51    42.22    
 36.19    31.35    27.40    23.03    17.47    15.91    14.61    12.96    11.61    10.45    
 9.10     7.45     5.46     3.84     3.37     3.43     3.53     3.63     3.76     3.89     
 4.03     4.19     4.35     4.55     4.77     4.99     5.23     5.48     5.76     6.05     
 6.35     6.66     7.00     7.36     7.75     8.18     8.67     9.18     9.69     10.26    
 10.88    11.55    12.27    13.01    13.79    14.65    15.61    16.61    17.63    18.70    
 19.85    21.12    22.51    23.98    25.48    27.12    28.90    30.81    32.90    35.05    
 37.34    39.85    42.49    45.31    48.37    51.67    55.33    59.21    63.29    67.89    
 73.18    78.86    85.02    91.80    99.18    107.24   116.46   125.68   134.88   144.94   
 155.12   165.64   176.12   186.86   197.48   207.92   218.44   228.44   238.28   247.60   
 256.36   264.74   272.27   279.66   285.89   291.22   295.44   298.56   300.60   301.53   
 301.27   299.76   297.10   293.32   288.52   282.87   276.27   268.80   260.71   251.76   
 211.16   
256819.66 256170.57 255270.22 253320.75 247089.35 240857.97 234603.69 226527.79 217926.15 207095.75 
 195521.05 183796.56 169721.12 155696.84 140582.08 126404.46 112859.80 99881.35 88502.49 78148.92 
 69827.18 62870.80 57328.28 52525.63 48542.03 44970.90 41523.49 38415.25 35644.39 33067.83 
 30722.86 28575.89 26488.63 24755.80 23024.85 21462.98 19950.90 18478.13 17216.26 16103.50 
 14888.13 13838.09 12831.02 11906.04 10931.92 10019.52 9197.78  8412.24  7712.60  7060.02  
 6453.50  5910.39  5428.05  4988.98  4594.84  4234.20  3902.33  3608.66  3329.38  3069.79  
 2832.73  2595.67  2358.90  2145.13  1951.84  1767.48  1598.09  1438.56  1287.88  1148.96  
 1021.74  900.11   787.64   686.54   593.92   508.00   428.20   356.61   302.07   247.54   
 193.18   153.48   120.54   92.88    59.11    24.38    6.66     4.38     3.70     3.28     
 2.96     2.73     2.51     2.54     2.48     2.22     1.54     1.63     1.68     1.68     
 1.66     1.66     1.72     1.76     1.82     1.88     1.87     1.95     2.11     2.13     
 2.21     2.37     2.45     2.54     2.68     2.85     3.09     3.25     3.40     3.56     
 3.74     3.94     4.18     4.45     4.75     5.07     5.44     5.82     6.25     6.76     
 7.28     7.85     8.48     9.10     9.79     10.54    11.39    12.35    13.40    14.54    
 15.80    17.21    18.77    20.52    22.39    24.46    26.72    29.15    31.71    34.48    
 37.33    40.36    43.60    47.09    50.74    54.61    58.77    63.22    67.94    72.74    
 77.75    82.90    88.25    94.03    99.76    105.60   111.63   118.09   125.22   132.29   
 140.06   148.37   156.70   165.81   175.18   184.91   194.81   204.60   214.51   224.00   
 211.16   
256819.66 257024.42 256945.80 255541.60 251118.52 244364.08 238374.74 230911.94 222994.45 213550.89 
 202330.75 190293.57 177487.94 163393.02 148766.39 134456.54 121188.31 109170.30 97164.63 86798.20 
 77951.94 70832.71 65254.26 60385.89 56184.36 52300.77 48988.77 45914.01 42880.62 40127.59 
 37661.34 35249.81 33018.87 30933.69 29025.96 27388.11 25736.44 24204.88 22746.36 21428.37 
 20175.77 18927.80 17731.88 16560.47 15561.41 14495.80 13521.73 12588.49 11782.75 10978.00 
 10173.25 9435.64  8787.49  8261.49  7782.05  7295.73  6853.59  6441.87  6069.80  5717.55  
 5380.89  5054.99  4750.18  4467.06  4188.62  3919.95  3664.76  3426.75  3193.34  2972.56  
 2766.51  2579.67  2399.97  2218.61  2049.40  1896.13  1757.61  1618.01  1487.33  1368.91  
 1262.36  1170.24  1078.24  986.24   904.55   829.02   758.93   696.45   642.42   595.76   
 548.78   503.62   462.07   423.74   388.19   355.38   324.59   298.85   275.81   253.55   
 229.36   210.41   193.25   177.67   162.64   148.35   134.46   121.65   108.84   97.77    
 87.20    78.85    71.09    62.80    54.91    46.59    38.84    32.26    26.71    13.70    
 4.91     3.82     3.79     3.95     4.17     4.43     4.67     4.99     5.33     5.69     
 6.20     6.88     7.54     8.33     9.64     10.88    10.84    10.89    11.34    12.12    
 13.12    14.14    15.32    17.40    18.88    20.22    21.80    23.67    25.68    27.92    
 30.33    32.87    34.67    37.36    40.59    43.94    47.52    51.28    55.30    59.51    
 63.99    68.75    73.71    78.98    84.45    90.21    96.13    102.33   108.80   116.78   
 123.68   131.57   140.31   149.41   159.01   169.13   179.71   190.50   201.08   211.88   
 211.16   
256819.66 257949.54 258949.81 259086.81 257119.03 252776.25 246825.82 240875.37 234904.16 226900.50 
 217525.92 206593.66 193825.83 179037.15 163838.36 149735.92 135565.72 122055.12 109006.98 97535.80 
 88342.03 80959.01 74787.35 69450.96 64537.63 60316.62 56594.74 53238.18 50069.22 46915.87 
 44052.24 41475.33 39167.86 37025.39 34996.70 33142.95 31227.58 29505.22 27906.87 26337.69 
 24868.63 23400.69 22044.15 20781.72 19457.14 18226.67 17049.66 15948.04 14892.17 13908.04 
 12969.93 12092.27 11263.35 10454.47 9730.43  9079.48  8484.39  7961.81  7480.59  7040.73  
 6644.20  6251.58  5880.98  5526.51  5200.17  4890.90  4594.34  4311.97  4031.74  3761.62  
 3490.85  3234.06  2996.21  2786.44  2576.67  2367.13  2179.97  2007.26  1848.71  1697.05  
 1557.54  1433.27  1322.64  1223.95  1130.06  1043.88  965.17   894.65   830.30   780.97   
 729.37   677.33   629.39   585.52   546.52   511.19   479.59   451.25   425.81   400.19   
 381.17   363.61   348.38   334.34   321.62   310.53   300.24   291.30   283.02   274.81   
 267.74   262.40   256.48   249.47   241.59   233.73   226.39   218.52   210.57   202.17   
 193.33   184.78   175.44   165.45   156.15   146.46   136.13   126.06   115.04   103.22   
 88.46    67.97    48.42    30.60    22.40    22.28    18.41    10.20    7.18     7.69     
 8.37     9.16     10.04    11.06    12.24    13.55    14.98    16.57    18.41    20.67    
 23.07    25.77    29.34    41.86    38.66    34.94    37.98    41.18    44.68    48.39    
 52.42    56.63    61.07    65.88    70.89    76.28    81.89    87.82    94.60    100.74   
 108.04   116.19   125.02   134.71   144.12   154.27   164.82   175.59   186.83   198.37   
 211.16   
256819.66 258876.75 260893.57 262269.79 262800.42 261446.73 257519.65 252129.33 245446.56 237472.94 
 228448.32 217775.14 204968.05 190623.06 175185.34 159659.03 144733.30 130769.75 118972.64 107654.09 
 96339.88 88850.32 82865.19 77600.15 72852.73 68501.30 64504.92 60821.31 57273.62 54010.64 
 50850.21 47994.21 45312.76 42744.71 40289.52 37999.15 35854.08 33806.12 31776.45 29908.95 
 28047.08 26141.34 24350.96 22641.55 20976.79 19484.24 18097.08 16766.75 15648.80 14588.50 
 13643.22 12752.08 11841.50 11123.43 10407.17 9744.46  9129.61  8597.41  8095.08  7624.20  
 7141.40  6681.26  6256.03  5872.02  5496.90  5136.84  4792.71  4464.52  4124.31  3818.04  
 3546.90  3294.28  3048.96  2810.72  2589.13  2387.53  2187.74  2004.97  1832.48  1675.47  
 1532.37  1401.13  1281.75  1187.35  1093.14  998.92   919.61   846.40   783.89   738.35   
 691.57   640.19   597.02   558.62   527.25   499.03   474.80   453.09   435.24   419.30   
 405.21   393.18   382.31   372.84   363.95   354.93   347.90   340.43   333.87   326.31   
 319.01   312.01   306.33   299.95   293.36   287.37   282.13   277.13   271.94   267.23   
 262.87   258.65   254.77   249.86   244.28   238.30   232.32   226.51   220.50   214.26   
 207.49   198.54   189.78   181.25   172.54   163.66   154.51   144.18   133.06   120.22   
 107.36   90.93    52.62    20.59    15.93    15.15    14.35    13.78    15.38    17.29    
 19.36    21.55    23.98    26.62    29.31    32.04    35.07    38.44    42.14    46.79    
 65.70    52.99    56.46    61.06    66.01    71.35    76.77    82.49    88.51    94.82    
 101.62   108.87   117.01   125.56   135.15   145.53   156.33   167.55   179.15   191.19   
 211.16   
256819.66 259561.71 262621.44 265593.05 267832.83 268772.34 267491.31 263596.29 257438.76 250001.55 
 239986.41 229944.61 217462.62 202560.50 187248.80 171960.12 157260.54 142629.99 129402.84 117785.32 
 108190.30 100388.73 93841.04 88362.26 83429.93 78611.06 73969.53 69527.34 65453.15 61563.85 
 57837.10 54255.07 51011.11 48098.07 45224.83 42353.54 39650.92 36744.73 34115.03 31658.69 
 29401.32 27478.21 25870.38 24262.56 22656.00 21167.67 19778.43 18447.02 17162.71 15907.99 
 14834.25 13858.14 12924.61 12076.22 11253.46 10516.41 9866.45  9245.33  8677.44  8142.92  
 7634.00  7141.77  6663.30  6190.20  5758.64  5375.77  5012.08  4666.80  4345.46  4034.76  
 3737.90  3452.14  3184.30  2932.10  2705.87  2479.73  2263.05  2057.85  1873.65  1705.60  
 1548.72  1400.93  1268.83  1156.67  1059.84  971.57   891.28   815.25   756.00   713.06   
 671.31   623.80   581.51   543.78   513.23   488.02   466.66   447.45   430.54   416.86   
 405.60   396.82   389.10   382.26   375.89   370.01   364.21   358.58   352.31   346.79   
 340.91   335.37   329.71   324.48   318.50   312.57   305.99   300.63   295.19   289.57   
 284.27   278.91   273.73   268.50   263.23   258.14   253.17   248.12   242.79   237.47   
 232.14   227.08   222.22   217.06   211.85   205.70   199.92   192.09   183.57   174.37   
 165.29   155.47   146.22   129.57   118.68   113.83   106.77   92.11    35.54    26.98    
 25.15    23.14    22.01    24.48    27.42    30.55    33.91    37.50    41.28    45.15    
 49.34    53.54    58.81    79.14    70.54    70.18    75.24    80.91    86.84    93.08    
 99.76    106.84   114.20   122.23   130.86   140.67   151.73   163.03   175.17   187.72   
 211.16   
256819.66 260344.20 264348.90 268198.38 271290.63 272344.87 270489.43 266540.82 261063.23 254022.28 
 245377.90 235010.44 223117.67 209581.98 194760.36 179451.30 164735.82 150738.87 137820.96 126223.87 
 118474.53 110760.40 103046.28 97079.28 91544.19 86302.62 81313.77 76415.75 71703.37 67472.83 
 63366.01 59359.53 55465.13 51647.17 48084.08 44709.86 41682.89 38944.89 36446.49 34157.23 
 32056.49 30088.51 28177.35 26409.60 24682.86 23047.81 21369.84 19834.56 18415.69 17113.01 
 15830.61 14612.29 13533.46 12590.89 11975.07 11124.97 10272.75 9625.39  9020.03  8383.96  
 7803.27  7297.75  6817.13  6385.41  5966.24  5578.16  5203.25  4857.44  4500.60  4164.61  
 3848.13  3548.33  3279.21  3022.06  2772.66  2546.26  2326.52  2117.30  1921.06  1746.27  
 1580.12  1434.59  1300.50  1201.83  1097.04  992.20   905.50   828.43   774.36   734.76   
 691.33   638.64   592.47   554.06   523.49   497.30   475.27   458.00   442.20   428.67   
 416.77   407.78   399.77   392.77   386.29   379.69   373.67   367.77   362.47   357.31   
 352.11   346.82   341.58   336.29   331.13   326.36   321.55   316.23   310.17   303.96   
 298.79   293.20   288.25   283.44   278.63   274.04   269.54   264.86   259.68   255.12   
 249.84   244.85   239.52   234.49   229.16   215.29   207.72   203.19   198.56   193.05   
 186.09   179.74   174.18   168.76   163.51   156.49   146.37   141.13   135.88   101.12   
 66.12    24.72    24.56    26.82    29.05    32.08    35.90    39.69    43.73    48.15    
 52.78    57.68    62.49    67.64    86.09    88.53    78.49    83.62    89.18    95.28    
 101.93   109.08   116.72   124.53   133.28   143.07   154.02   165.61   177.97   191.01   
 211.16   
256819.66 260820.41 265214.90 269478.22 272648.44 273574.36 271789.65 267892.67 262376.14 255191.78 
 245061.08 234930.40 224767.96 211777.39 197352.31 182469.68 167944.99 153981.92 141098.50 129705.69 
 120723.05 113480.64 107111.57 101124.62 95400.34 89857.88 84675.47 79898.68 75378.91 70904.73 
 66296.50 62013.18 57871.69 54059.00 50329.37 46967.34 43983.11 41234.48 38715.23 36237.91 
 33963.13 31799.58 29914.47 28001.58 26078.58 24316.41 22556.09 20959.70 19417.08 17955.79 
 16571.04 15264.52 14137.62 13083.83 12138.48 11338.53 10611.19 9931.07  9249.31  8599.08  
 8010.55  7495.50  7004.18  6555.92  6129.87  5729.74  5352.49  4979.04  4623.78  4283.84  
 3953.09  3656.28  3387.27  3133.89  2883.41  2641.28  2399.37  2180.11  1982.15  1799.61  
 1621.17  1464.65  1326.38  1208.17  1100.34  1002.53  914.85   834.63   777.56   735.71   
 692.13   641.28   595.79   558.39   528.38   503.87   481.77   462.69   444.25   428.59   
 415.94   406.23   397.44   390.39   384.29   378.54   373.05   367.61   362.56   357.60   
 352.68   347.67   342.87   337.91   333.37   329.01   324.53   320.17   315.71   310.58   
 305.80   301.31   296.95   292.55   288.05   283.09   278.29   273.76   269.18   264.52   
 259.50   254.28   248.92   243.03   237.15   231.19   218.15   211.14   206.71   202.27   
 197.85   192.72   187.39   182.07   177.09   171.66   166.47   161.42   156.75   149.83   
 136.87   47.48    29.97    30.31    31.11    33.61    37.57    42.07    46.59    51.36    
 56.34    61.42    66.68    72.23    81.73    112.61   82.99    87.52    92.73    98.68    
 105.16   112.49   120.25   128.27   137.01   146.94   157.83   169.63   182.40   195.68   
 211.16   
256819.66 260982.22 265345.20 269119.18 271431.55 271644.64 269799.94 266127.28 260629.03 253108.56 
 243839.28 233177.88 221206.05 208003.30 193491.49 178378.78 163931.15 150274.24 137764.73 126642.01 
 116869.01 110310.31 103780.18 97851.69 92093.46 86749.59 81605.73 76759.94 72150.51 67857.55 
 63602.97 59572.67 55697.67 51808.35 48150.82 44837.40 41774.59 39079.66 36681.36 34325.87 
 32277.03 30250.83 28334.80 26525.89 24800.48 23056.13 21398.13 19862.77 18426.74 17144.95 
 15887.43 14665.92 13593.99 12605.98 11658.03 10921.98 10187.81 9525.62  8917.07  8289.80  
 7727.80  7209.21  6736.08  6300.43  5900.57  5513.40  5147.85  4792.45  4444.32  4112.59  
 3799.34  3502.98  3237.80  2980.88  2737.58  2507.95  2294.77  2089.72  1895.89  1718.10  
 1553.60  1407.15  1275.20  1173.12  1071.26  969.41   886.91   813.14   759.94   718.65   
 674.66   623.44   578.13   540.16   509.00   483.97   462.86   446.15   430.69   417.52   
 406.29   397.57   390.51   384.57   378.38   372.41   366.80   361.90   357.05   352.03   
 346.76   342.21   338.05   333.25   328.88   324.89   320.83   315.87   310.29   305.10   
 299.65   294.41   289.00   283.72   278.14   272.99   268.01   262.73   257.77   252.66   
 246.70   240.64   233.98   227.70   222.93   210.49   205.97   201.42   196.88   190.92   
 185.18   179.89   173.80   167.70   161.25   150.52   141.93   135.25   127.30   80.30    
 33.00    29.94    29.61    29.85    32.51    36.65    41.05    45.74    50.70    55.82    
 61.18    66.87    72.85    82.63    108.48   86.39    90.60    95.37    100.49   105.59   
 111.65   118.66   126.42   134.35   143.09   153.34   164.33   176.32   188.96   202.37   
 211.16   
256819.66 260730.85 264361.08 267352.55 269190.97 269371.27 268123.95 265135.67 260341.56 253265.69 
 242577.29 231888.92 221166.05 207370.81 191960.79 176409.61 161141.66 146695.93 133105.12 121390.43 
 111139.86 102971.49 96468.48 90696.81 85328.37 80372.11 75594.67 71076.13 66662.60 62533.88 
 58712.73 55347.26 52044.10 48719.96 45624.42 42701.06 39800.86 36879.88 34185.59 31833.74 
 29715.71 27881.27 26206.92 24611.02 23016.19 21519.84 20060.85 18716.89 17388.58 16114.18 
 15010.85 13981.01 13007.97 12114.97 11272.68 10544.10 9850.30  9220.34  8631.61  8080.97  
 7570.66  7090.19  6622.34  6151.03  5719.84  5345.56  4991.24  4650.62  4330.05  4031.26  
 3733.05  3449.64  3179.47  2925.16  2704.25  2483.33  2262.61  2061.05  1874.17  1708.51  
 1551.09  1402.84  1265.74  1149.78  1054.35  966.11   886.35   812.68   749.48   704.62   
 662.35   615.29   570.04   531.29   497.78   471.10   449.07   430.21   413.51   399.70   
 389.28   380.42   373.05   366.12   360.17   354.48   349.22   343.70   338.31   332.72   
 327.67   322.16   317.29   312.93   308.22   302.83   297.49   292.09   286.45   281.23   
 275.55   270.08   264.77   259.47   254.60   249.82   245.23   239.52   233.81   228.11   
 223.10   217.72   212.03   206.38   200.31   194.09   185.70   177.39   169.90   162.00   
 154.23   146.70   134.05   125.01   117.26   106.21   81.08    28.94    25.49    25.24    
 24.50    25.52    28.92    32.69    36.61    40.83    45.25    49.87    54.98    60.52    
 66.71    74.65    95.41    82.09    86.37    91.29    96.22    101.71   107.49   113.55   
 119.51   126.06   132.95   141.07   150.19   160.25   170.94   182.20   194.31   206.97   
 211.16   
256819.66 260083.61 262606.37 264537.87 265567.08 265535.58 264172.29 261121.05 256027.75 248694.28 
 238884.83 226948.23 213355.55 198929.97 183600.35 168185.59 153045.76 139073.87 125775.67 115314.82 
 104880.66 94446.49 87671.63 81852.05 76730.14 72144.09 67983.41 64051.19 60300.61 56820.35 
 53486.73 50450.39 47634.88 44805.74 42179.09 39842.56 37485.02 35189.69 33118.89 30993.57 
 28980.54 27019.22 25144.03 23331.95 21598.33 20130.35 18758.16 17476.41 16285.06 15211.41 
 14215.47 13229.07 12359.52 11748.04 10911.48 10072.85 9411.24  8815.55  8268.61  7755.66  
 7259.18  6794.54  6368.71  5980.74  5590.77  5230.77  4896.72  4562.89  4224.72  3910.62  
 3631.49  3375.96  3131.96  2888.16  2664.09  2458.36  2259.52  2069.03  1897.57  1736.15  
 1587.46  1450.73  1327.53  1214.23  1120.39  1026.75  940.05   864.33   795.65   744.67   
 698.78   647.23   600.23   559.86   525.68   495.07   468.61   445.72   426.51   409.72   
 394.82   381.77   370.56   360.73   351.93   343.43   335.81   328.98   322.59   315.77   
 308.70   301.45   295.35   288.84   282.79   276.95   270.82   265.09   259.64   253.68   
 248.02   242.74   237.34   231.59   225.72   218.86   211.53   204.84   199.86   195.69   
 188.26   180.33   171.85   162.55   153.16   144.32   135.01   122.26   109.48   96.71    
 76.17    36.21    23.64    19.72    17.07    16.36    17.92    20.20    22.69    25.48    
 28.52    31.69    35.21    39.09    43.26    47.70    52.70    59.60    74.12    67.13    
 71.33    76.11    80.92    85.83    91.01    96.57    102.19   108.05   114.53   120.26   
 126.13   132.63   140.23   148.72   157.77   167.38   177.54   188.24   199.35   211.48   
 211.16   
256819.66 259090.15 260574.53 261278.20 261664.62 261491.14 259975.25 256636.45 250334.43 240980.79 
 231627.15 222244.36 210202.88 196280.06 181181.70 166143.62 150960.72 136321.50 122669.13 110077.05 
 98882.98 89364.62 81741.22 75451.65 70342.59 65912.90 61812.45 57984.49 54545.71 51209.56 
 48320.32 45521.42 42822.79 40419.56 38380.18 36225.79 34203.14 32159.89 30342.94 28628.74 
 27065.73 25496.55 24047.42 22599.49 21263.59 19865.98 18621.96 17451.70 16362.32 15224.20 
 14188.27 13210.80 12285.66 11394.63 10528.26 9765.58  9084.03  8438.49  7879.89  7418.75  
 6979.53  6563.63  6156.76  5780.61  5439.86  5126.18  4815.01  4516.99  4232.95  3967.08  
 3705.97  3448.84  3195.51  2963.29  2752.76  2542.23  2331.94  2145.94  1980.71  1823.54  
 1674.35  1536.93  1410.23  1304.58  1205.93  1111.96  1023.58  944.44   876.14   813.38   
 761.32   710.67   657.96   609.72   566.84   528.94   493.67   462.08   434.05   406.74   
 382.75   363.61   346.87   331.37   317.25   304.86   292.91   281.47   270.56   260.70   
 252.35   244.68   237.46   230.25   223.01   214.27   205.53   196.83   187.52   178.39   
 169.60   160.49   152.12   144.07   135.48   126.57   116.97   106.08   94.36    79.73    
 62.40    42.83    29.38    22.99    17.31    10.15    9.22     10.00    10.91    11.93    
 13.10    14.39    15.82    17.48    19.30    21.31    23.72    26.47    29.62    33.83    
 43.39    40.28    42.05    45.55    48.91    52.72    56.99    61.45    66.21    71.00    
 76.05    81.26    86.61    92.15    97.72    103.62   109.51   115.72   121.92   128.56   
 135.45   142.84   150.67   159.10   167.95   177.28   186.95   197.02   207.47   218.30   
 211.16   
256819.66 257845.21 258008.98 257621.02 256917.42 255475.58 252237.90 246146.72 239212.29 231764.90 
 223146.68 212729.35 200857.48 187767.49 173344.64 158677.84 144243.26 130198.36 117322.63 105746.28 
 94182.07 84488.99 76739.77 70087.70 64533.20 59971.34 55919.01 52331.56 48900.78 45762.62 
 42763.18 40052.39 37585.08 35306.43 33262.57 31403.39 29514.60 27746.13 26014.44 24433.51 
 23156.81 21754.98 20402.41 19124.10 17939.69 16810.51 15685.68 14626.98 13607.70 12647.06 
 11739.92 10962.76 10186.87 9462.10  8827.98  8244.69  7693.74  7210.45  6754.13  6329.17  
 5937.57  5577.57  5234.14  4909.75  4601.29  4315.82  4030.95  3769.32  3508.68  3262.23  
 3035.61  2830.83  2634.64  2439.16  2259.42  2091.26  1933.82  1782.40  1642.05  1511.65  
 1389.22  1274.34  1163.85  1078.32  992.97   910.77   829.74   756.82   690.89   635.06   
 585.26   541.37   498.08   457.50   419.12   383.10   349.24   318.12   289.90   264.64   
 241.48   216.72   197.64   180.09   162.89   147.31   133.10   121.53   109.99   98.44    
 88.81    79.42    70.26    60.39    51.15    43.65    37.06    23.57    7.78     5.12     
 5.10     5.24     5.46     5.72     6.02     6.44     6.92     7.50     8.27     9.06     
 10.01    11.01    12.13    12.83    13.24    13.88    14.77    15.78    16.89    18.08    
 19.25    20.57    22.15    24.64    27.35    29.16    30.37    33.16    37.06    39.87    
 42.90    45.27    47.71    51.64    55.73    59.97    64.48    69.26    74.20    79.46    
 84.86    90.47    96.20    102.25   108.39   114.63   121.05   127.70   134.59   141.58   
 148.90   156.51   164.70   173.15   182.03   191.50   201.20   211.00   220.97   230.80   
 211.16   
256819.66 257066.46 256789.35 256386.64 255422.91 252740.96 246803.13 239946.42 233078.80 224654.21 
 214733.60 203597.49 191688.62 178932.09 164447.64 150544.56 135608.61 122017.69 109172.54 96336.47 
 85350.48 75958.69 68149.78 61875.77 56409.41 51874.30 47840.46 44324.81 40928.44 38015.92 
 35133.39 32626.09 30390.61 28194.20 26197.78 24355.35 22710.28 21127.24 19684.60 18375.00 
 17075.06 15874.92 14691.95 13704.67 12775.56 11829.11 10882.46 9935.80  9079.96  8334.04  
 7645.80  7029.42  6472.15  5901.85  5406.61  4973.74  4575.18  4221.92  3885.77  3562.75  
 3280.77  3012.11  2766.68  2538.13  2322.31  2117.57  1939.24  1764.47  1593.77  1431.62  
 1286.58  1156.65  1026.88  897.11   789.11   689.39   599.05   509.95   429.57   358.93   
 299.20   247.12   199.97   158.79   123.25   86.01    48.75    17.55    7.89     6.47     
 6.01     5.67     5.52     5.39     5.31     5.43     5.47     4.89     4.85     5.09     
 5.27     5.45     5.58     5.79     6.05     6.35     6.71     7.00     7.35     7.72     
 8.07     8.47     8.94     9.41     9.86     10.38    10.98    11.67    12.35    13.07    
 13.84    14.70    15.63    16.62    17.66    18.77    20.02    21.39    22.82    24.33    
 25.93    27.65    29.52    31.56    33.70    36.04    38.57    41.30    44.37    47.73    
 51.51    55.72    60.49    65.80    71.65    78.24    85.48    93.16    101.27   110.13   
 119.75   129.62   139.63   149.57   159.43   169.60   180.21   190.52   200.40   209.78   
 219.22   228.33   236.76   246.07   252.80   259.28   264.75   269.56   273.36   275.98   
 277.57   277.85   277.11   275.28   272.47   268.65   263.77   257.93   251.15   243.32   
 211.16   
256819.66 256291.49 255448.74 255286.36 255032.30 253491.01 247141.36 240791.74 234418.40 224880.46 
 214976.45 203864.06 188556.60 171686.05 153752.85 136553.88 122572.11 108161.63 94528.49 82648.18 
 72530.92 63407.95 55844.96 48463.65 43159.78 39125.09 35982.86 32819.38 29530.66 26943.09 
 24355.52 21771.18 19609.59 17468.41 15789.76 14155.79 12525.68 11195.70 10070.69 9041.37  
 8134.92  7271.09  6480.78  5888.61  5277.00  4672.31  4022.03  3452.90  2878.44  2304.88  
 1828.88  1451.55  1163.42  930.27   762.18   632.28   519.63   424.99   346.32   293.40   
 240.48   187.75   154.86   127.20   104.29   86.00    70.10    57.81    48.97    42.23    
 36.53    31.55    27.94    24.43    20.76    15.33    13.65    12.52    11.44    10.41    
 9.36     8.34     7.35     6.16     4.84     3.78     3.55     3.63     3.74     3.85     
 3.98     4.11     4.26     4.43     4.61     4.80     5.00     5.22     5.47     5.73     
 5.99     6.25     6.54     6.85     7.18     7.54     7.93     8.36     8.81     9.31     
 9.82     10.38    10.98    11.61    12.27    13.02    13.83    14.68    15.56    16.52    
 17.54    18.61    19.79    21.02    22.31    23.75    25.30    26.99    28.73    30.58    
 32.62    34.72    36.98    39.37    41.90    44.64    47.58    50.81    54.15    57.68    
 61.79    66.30    71.42    77.11    83.27    90.04    97.47    105.37   113.81   123.52   
 133.22   143.14   153.02   163.24   173.66   183.84   194.15   203.90   213.68   223.02   
 231.83   240.29   247.91   255.13   261.52   267.31   271.98   275.89   278.84   280.72   
 281.15   280.30   278.40   275.43   271.41   266.11   259.58   252.01   243.67   234.09   
 211.16   
256819.66 255368.77 255073.40 255310.27 255432.71 254715.96 250677.43 232949.27 214013.81 203569.77 
 187236.86 172911.14 157530.40 139539.90 126317.95 111986.77 97643.51 83300.25 70615.23 59725.69 
 49376.47 39787.63 34498.23 30503.67 27509.43 24693.78 22483.21 20348.71 18197.17 16460.06 
 14504.82 11713.13 9691.52  7679.12  6367.70  4999.84  4175.85  3134.99  2436.78  1739.03  
 1057.00  771.07   490.02   364.06   281.75   220.53   175.19   141.80   120.22   98.77    
 84.00    71.86    61.29    52.78    47.25    41.99    37.82    33.71    30.51    28.16    
 26.02    24.21    22.17    19.62    16.02    13.01    12.10    11.41    10.79    10.20    
 9.66     9.19     8.80     8.37     7.96     7.57     7.17     6.75     6.32     5.89     
 5.47     5.01     4.59     4.23     3.99     3.95     4.00     4.13     4.26     4.41     
 4.57     4.74     4.92     5.13     5.34     5.57     5.82     6.08     6.34     6.65     
 6.97     7.31     7.65     8.04     8.45     8.88     9.34     9.81     10.30    10.84    
 11.44    12.07    12.73    13.42    14.20    15.04    15.93    16.86    17.83    18.88    
 20.02    21.24    22.49    23.84    25.30    26.81    28.45    30.21    32.11    34.11    
 36.18    38.38    40.71    43.22    45.95    48.97    52.18    55.66    59.44    63.54    
 68.02    73.20    78.96    85.21    91.93    99.17    106.82   115.24   124.49   134.02   
 143.86   153.52   163.27   173.20   183.63   193.84   203.62   212.94   221.69   230.43   
 239.48   248.54   255.41   261.42   267.15   271.96   275.81   278.64   280.54   281.13   
 280.40   278.91   275.32   271.15   266.09   259.54   251.98   244.01   234.29   223.38   
 211.16   
256819.66 254737.21 254380.55 254743.91 255027.86 242483.87 229959.46 219377.96 203292.42 186941.46 
 168887.19 156790.97 136156.71 122034.76 105933.31 87858.43 72410.42 64479.23 56938.08 49695.10 
 43413.98 37864.28 32758.04 27122.83 21494.39 16659.68 13420.52 10465.43 7722.72  6099.12  
 4344.88  2590.64  847.85   560.56   379.49   283.52   187.95   138.27   105.45   85.19    
 70.55    60.03    50.21    43.55    39.42    36.01    32.71    30.18    27.98    26.10    
 24.33    22.99    21.66    20.07    18.16    16.27    14.25    11.78    10.73    10.48    
 10.14    9.69     9.26     8.87     8.54     8.20     7.91     7.64     7.37     7.12     
 6.88     6.63     6.39     6.13     5.84     5.57     5.35     5.11     4.88     4.64     
 4.41     4.20     4.02     3.87     3.86     3.90     3.99     4.10     4.23     4.38     
 4.53     4.70     4.87     5.07     5.29     5.53     5.75     6.01     6.29     6.60     
 6.91     7.26     7.61     8.00     8.40     8.83     9.32     9.82     10.33    10.87    
 11.47    12.12    12.80    13.50    14.26    15.10    16.08    17.12    18.18    19.28    
 20.47    21.78    23.23    24.74    26.28    27.94    29.72    31.71    33.76    35.88    
 38.18    40.64    43.27    46.07    49.04    52.28    55.73    59.56    63.57    67.97    
 72.90    78.26    83.99    90.33    97.17    104.65   112.55   121.46   130.38   139.70   
 149.29   159.15   169.13   179.30   189.65   199.85   209.96   219.59   229.00   237.97   
 246.19   253.57   260.29   266.40   271.49   275.61   278.68   280.47   281.30   281.07   
 279.83   277.18   273.43   268.54   262.50   255.45   247.22   238.31   228.44   216.73   
 211.16   
256819.66 254041.30 253652.93 253967.92 252177.60 231325.61 219489.89 207253.72 187889.22 176676.07 
 154494.76 139032.80 124007.48 106853.62 89676.48 82071.68 74702.21 66618.76 58788.52 48953.92 
 36482.21 27288.45 19179.85 15703.40 11695.09 7680.37  3665.65  2539.73  1443.39  347.04   
 224.64   165.83   120.09   99.74    79.68    67.34    55.26    48.46    41.38    37.35    
 32.35    30.05    27.52    25.86    23.32    21.59    19.90    18.51    17.27    15.83    
 14.68    13.28    10.85    9.66     8.83     8.28     8.00     7.82     7.64     7.44     
 7.22     7.08     6.90     6.70     6.54     6.37     6.21     6.04     5.87     5.68     
 5.51     5.35     5.19     5.04     4.89     4.74     4.60     4.46     4.33     4.22     
 4.11     4.01     3.92     3.89     3.88     3.91     4.00     4.11     4.23     4.37     
 4.52     4.68     4.87     5.08     5.30     5.52     5.76     6.04     6.32     6.63     
 6.95     7.30     7.67     8.07     8.50     8.96     9.44     9.94     10.44    11.02    
 11.67    12.34    13.07    13.85    14.71    15.62    16.60    17.58    18.70    19.93    
 21.26    22.65    24.12    25.75    27.47    29.28    31.24    33.34    35.61    37.99    
 40.50    43.13    46.00    49.09    52.38    55.93    59.70    63.86    68.29    73.08    
 78.21    83.79    89.95    96.62    103.77   111.54   119.81   128.40   137.44   146.90   
 156.66   166.46   176.23   185.87   195.98   205.90   215.38   224.41   233.22   242.65   
 252.08   259.61   266.28   272.26   276.97   280.37   282.58   283.65   283.58   282.71   
 281.05   277.99   274.04   268.89   262.32   254.99   246.74   237.79   227.31   215.90   
 211.16   
256819.66 253665.78 252037.68 252044.47 239520.85 227002.26 214986.69 200592.81 182441.16 166898.30 
 149124.75 131686.05 107743.66 97374.19 91232.10 84910.17 78025.04 70665.39 53338.04 41315.94 
 32191.13 23066.32 13975.08 8990.84  4755.36  554.76   262.89   213.79   164.38   83.47    
 47.39    33.91    26.38    22.25    19.77    17.87    16.55    15.32    14.43    13.57    
 12.64    11.92    11.26    10.49    9.85     9.39     9.01     8.70     8.13     7.36     
 6.82     6.78     6.88     6.86     6.83     6.73     6.50     6.26     5.96     5.74     
 5.57     5.44     5.29     5.16     5.07     4.96     4.83     4.71     4.61     4.51     
 4.42     4.34     4.29     4.23     4.16     4.08     4.01     3.93     3.88     3.82     
 3.76     3.71     3.68     3.67     3.68     3.72     3.79     3.86     3.96     4.07     
 4.21     4.37     4.52     4.71     4.91     5.13     5.35     5.60     5.88     6.19     
 6.51     6.85     7.22     7.61     8.04     8.49     8.99     9.49     10.02    10.59    
 11.19    11.84    12.57    13.36    14.17    15.08    16.08    17.11    18.18    19.34    
 20.59    22.03    23.55    25.15    26.83    28.72    30.72    32.87    35.13    37.61    
 40.20    42.98    45.96    49.14    52.51    56.17    60.09    64.37    68.82    73.69    
 79.15    84.96    91.21    98.05    105.46   113.45   122.48   131.51   140.74   150.66   
 160.63   170.86   180.96   191.32   201.57   211.53   221.28   230.41   239.33   247.59   
 255.58   263.18   270.18   276.72   281.95   285.74   288.61   290.04   290.04   288.84   
 286.12   282.53   278.37   273.47   267.42   260.06   251.13   241.27   230.64   218.99   
 211.16   
256819.66 253416.29 250691.53 250346.66 249908.32 227730.76 214072.77 199696.57 181046.06 164594.68 
 147380.10 130946.53 117422.90 103931.68 90440.46 83934.53 76923.57 69272.60 49702.60 38134.28 
 26381.56 20652.40 12948.95 6795.08  658.89   101.59   68.17    39.62    28.58    23.96    
 20.93    17.96    16.53    15.40    13.93    12.30    11.17    10.08    9.39     8.78     
 8.35     8.18     7.89     7.48     7.12     6.77     6.54     6.18     5.90     5.77     
 5.68     5.48     5.30     5.11     5.08     4.90     4.85     4.75     4.70     4.65     
 4.64     4.63     4.59     4.58     4.57     4.56     4.55     4.54     4.53     4.51     
 4.47     4.43     4.38     4.32     4.26     4.19     4.13     4.07     4.01     3.97     
 3.94     3.91     3.88     3.87     3.86     3.86     3.89     3.97     4.08     4.20     
 4.34     4.47     4.64     4.81     5.00     5.20     5.42     5.67     5.96     6.27     
 6.60     6.96     7.33     7.73     8.16     8.62     9.09     9.58     10.10    10.69    
 11.32    12.02    12.77    13.57    14.44    15.38    16.36    17.42    18.57    19.81    
 21.14    22.53    24.01    25.65    27.37    29.24    31.27    33.53    35.92    38.42    
 41.09    43.98    47.06    50.39    53.96    57.65    61.59    65.86    70.54    75.55    
 80.90    86.90    93.40    100.41   107.85   115.84   124.44   133.47   142.79   152.75   
 163.00   173.35   183.54   193.68   204.09   214.33   223.83   232.63   241.87   251.10   
 258.70   265.86   272.38   278.79   284.16   288.19   290.78   292.19   292.29   291.08   
 288.18   284.36   280.00   274.88   269.31   262.31   254.05   244.95   235.10   223.66   
 211.16   
