IESNA:LM-63-2002
[TEST] 1
[TESTLAB] AOK
[TESTDATE] 2022-05-27
[ISSUEDATE] 2022-05-27 09:59:10
[NEARFIELD] 
[LAMPPOSITION] 0,0
[OTHER] EVERFINE GO-2000A_V1 SYSTEM
[MANUFAC] AOK
[LUMCAT] A
[LUMINAIRE] AOK-600WiSF-HV-S5-00-5070-15D-
[LAMPCAT] B
[LAMP] 5050
[BALLAST] E
[BALLASTCAT] F
[OTHER] 
[OTHER] Gamma(deg)    Fz(lm)      Ft(lm)     %Lum    %Lamp
[OTHER]   0- 10     34729.61    34729.61    47.82    47.82
[OTHER]  10- 20     16916.22    51645.84    71.12    71.12
[OTHER]  20- 30      6377.36    58023.20    79.90    79.90
[OTHER]  30- 40      4334.92    62358.12    85.87    85.87
[OTHER]  40- 50      3519.17    65877.30    90.71    90.71
[OTHER]  50- 60      2767.93    68645.22    94.52    94.52
[OTHER]  60- 70      1887.24    70532.46    97.12    97.12
[OTHER]  70- 80       951.12    71483.58    98.43    98.43
[OTHER]  80- 90       357.26    71840.84    98.92    98.92
[OTHER]  90-100       176.89    72017.74    99.17    99.17
[OTHER] 100-110       142.16    72159.89    99.36    99.36
[OTHER] 110-120       127.06    72286.95    99.54    99.54
[OTHER] 120-130        98.50    72385.45    99.67    99.67
[OTHER] 130-140        68.41    72453.86    99.77    99.77
[OTHER] 140-150        48.62    72502.48    99.83    99.83
[OTHER] 150-160        54.26    72556.74    99.91    99.91
[OTHER] 160-170        49.62    72606.36    99.98    99.98
[OTHER] 170-180        16.01    72622.37   100.00   100.00
[OTHER] 
TILT=NONE
1 72622 1 181 25 1 2 0.150 0.200 0.000
1.000 1 595.204
0.0    1.0    2.0    3.0    4.0    5.0    6.0    7.0    8.0    9.0    
 10.0   11.0   12.0   13.0   14.0   15.0   16.0   17.0   18.0   19.0   
 20.0   21.0   22.0   23.0   24.0   25.0   26.0   27.0   28.0   29.0   
 30.0   31.0   32.0   33.0   34.0   35.0   36.0   37.0   38.0   39.0   
 40.0   41.0   42.0   43.0   44.0   45.0   46.0   47.0   48.0   49.0   
 50.0   51.0   52.0   53.0   54.0   55.0   56.0   57.0   58.0   59.0   
 60.0   61.0   62.0   63.0   64.0   65.0   66.0   67.0   68.0   69.0   
 70.0   71.0   72.0   73.0   74.0   75.0   76.0   77.0   78.0   79.0   
 80.0   81.0   82.0   83.0   84.0   85.0   86.0   87.0   88.0   89.0   
 90.0   91.0   92.0   93.0   94.0   95.0   96.0   97.0   98.0   99.0   
 100.0  101.0  102.0  103.0  104.0  105.0  106.0  107.0  108.0  109.0  
 110.0  111.0  112.0  113.0  114.0  115.0  116.0  117.0  118.0  119.0  
 120.0  121.0  122.0  123.0  124.0  125.0  126.0  127.0  128.0  129.0  
 130.0  131.0  132.0  133.0  134.0  135.0  136.0  137.0  138.0  139.0  
 140.0  141.0  142.0  143.0  144.0  145.0  146.0  147.0  148.0  149.0  
 150.0  151.0  152.0  153.0  154.0  155.0  156.0  157.0  158.0  159.0  
 160.0  161.0  162.0  163.0  164.0  165.0  166.0  167.0  168.0  169.0  
 170.0  171.0  172.0  173.0  174.0  175.0  176.0  177.0  178.0  179.0  
 180.0  
0.0    15.0   30.0   45.0   60.0   75.0   90.0   105.0  120.0  135.0  
 150.0  165.0  180.0  195.0  210.0  225.0  240.0  255.0  270.0  285.0  
 300.0  315.0  330.0  345.0  360.0  
577728.25 577284.98 573210.13 561903.38 485887.10 402390.20 314614.27 215580.98 145332.98 105915.60 
 66861.54 27807.47 14125.22 726.38   408.38   229.96   51.55    36.71    27.87    22.18    
 18.82    16.43    14.51    12.90    11.95    10.92    9.87     9.55     9.25     9.82     
 10.22    9.70     8.68     7.69     7.31     7.05     6.98     6.64     6.59     6.30     
 6.00     5.86     5.73     5.39     5.17     5.13     5.10     4.92     4.67     4.44     
 4.39     4.32     4.32     4.26     4.22     4.20     4.05     3.95     3.90     3.85     
 3.71     3.63     3.58     3.52     3.45     3.35     3.30     3.25     3.23     3.20     
 3.18     3.15     3.13     3.10     3.07     3.05     3.04     3.03     3.03     3.03     
 3.03     3.07     3.18     3.36     3.48     3.58     3.68     3.74     3.78     3.82     
 3.88     3.94     3.98     3.99     4.05     4.12     4.21     4.33     4.50     4.70     
 4.92     5.18     5.47     5.79     6.16     6.54     6.96     7.40     7.85     8.31     
 8.76     9.19     9.59     10.00    10.43    10.90    11.39    11.90    12.48    13.08    
 13.70    14.36    15.04    15.75    16.49    17.28    18.11    18.99    19.88    20.81    
 21.80    22.82    23.89    24.98    26.07    27.21    28.45    29.81    31.31    32.94    
 34.75    36.87    39.30    42.32    45.96    50.24    55.37    61.64    69.29    79.14    
 91.74    106.53   123.17   141.03   159.41   179.01   200.43   221.33   241.32   261.30   
 279.75   296.49   309.43   318.20   323.08   323.61   320.69   314.59   306.16   296.76   
 286.06   274.35   261.90   249.14   236.20   222.66   208.81   194.49   179.29   163.06   
 146.37   
577728.25 575982.89 571127.93 559421.17 504161.23 414234.21 323903.26 233572.36 143618.37 103869.57 
 59862.86 45118.45 30374.03 15629.61 1014.39  769.30   606.62   387.25   271.94   157.17   
 114.64   88.24    70.37    64.82    51.37    40.27    27.27    21.09    17.49    14.87    
 13.16    11.75    10.02    8.27     7.24     6.58     6.13     6.08     6.36     6.79     
 6.79     6.74     6.63     6.50     6.29     6.13     5.98     5.81     5.61     5.45     
 5.27     5.09     4.89     4.76     4.61     4.46     4.38     4.26     4.10     4.01     
 3.94     3.83     3.75     3.65     3.52     3.42     3.33     3.26     3.17     3.05     
 2.95     2.87     2.78     2.70     2.65     2.57     2.52     2.48     2.48     2.48     
 2.48     2.50     2.53     2.57     2.65     2.72     2.79     2.87     2.97     3.06     
 3.15     3.24     3.34     3.45     3.57     3.70     3.86     4.04     4.24     4.46     
 4.70     4.97     5.26     5.57     5.91     6.26     6.62     7.02     7.44     7.87     
 8.33     8.80     9.27     9.73     10.23    10.74    11.30    11.88    12.47    13.07    
 13.72    14.41    15.14    15.87    16.62    17.41    18.24    19.12    20.04    21.02    
 22.02    23.05    24.11    25.19    26.31    27.50    28.77    30.17    31.70    33.41    
 35.40    37.70    40.31    43.38    46.98    51.32    56.52    63.00    71.00    81.28    
 93.52    108.23   125.89   143.58   163.20   183.26   203.97   224.30   244.61   264.09   
 282.13   298.27   310.88   319.60   323.49   323.42   320.08   313.87   305.62   295.98   
 285.33   273.86   261.90   249.48   237.09   224.61   211.13   196.89   180.87   162.68   
 146.37   
577728.25 573893.43 566920.22 551435.19 515610.34 420537.89 328325.48 236868.71 161639.19 122612.34 
 84014.66 45417.00 29247.08 17356.55 11949.04 6610.23  1271.43  867.55   526.51   386.93   
 286.63   217.97   169.27   127.28   104.50   81.94    70.42    60.65    52.28    43.02    
 37.67    33.27    29.40    26.40    23.74    20.15    16.98    15.34    14.38    13.72    
 13.31    12.69    12.27    11.77    11.08    10.28    9.58     8.97     8.12     7.46     
 6.72     5.85     5.41     5.25     5.15     5.03     4.81     4.57     4.31     4.05     
 3.86     3.74     3.62     3.47     3.32     3.18     3.06     2.95     2.85     2.78     
 2.71     2.65     2.60     2.54     2.49     2.44     2.39     2.36     2.34     2.33     
 2.34     2.36     2.42     2.48     2.55     2.61     2.70     2.80     2.89     3.01     
 3.14     3.28     3.43     3.59     3.77     3.96     4.15     4.34     4.56     4.78     
 5.01     5.27     5.52     5.81     6.10     6.43     6.77     7.14     7.52     7.91     
 8.33     8.78     9.23     9.70     10.19    10.68    11.23    11.78    12.37    12.97    
 13.60    14.24    14.92    15.62    16.33    17.06    17.84    18.68    19.54    20.42    
 21.36    22.33    23.36    24.51    25.75    27.06    28.49    30.11    31.96    34.00    
 36.24    38.83    41.79    45.18    49.10    53.91    59.74    66.90    75.59    86.41    
 99.60    114.51   131.09   148.65   167.39   187.76   208.26   228.13   248.70   269.27   
 286.21   300.47   311.01   317.61   320.40   319.66   315.90   309.73   301.71   292.17   
 281.87   270.74   258.70   246.34   234.28   221.15   206.84   192.09   176.51   160.31   
 146.37   
577728.25 573005.20 563918.44 546215.67 510766.45 453303.25 355642.72 273579.53 191700.80 134575.59 
 98376.39 64733.39 51206.10 38744.23 26282.36 13898.58 9961.71  5655.27  1388.03  1047.02  
 767.39   544.38   376.68   300.54   224.40   148.62   113.05   90.57    76.68    66.48    
 58.25    51.13    45.56    40.87    37.04    33.72    30.86    28.21    25.89    23.52    
 20.77    17.56    15.37    14.00    13.07    12.26    11.53    10.88    10.34    9.72     
 9.02     8.39     7.79     7.32     6.89     6.54     6.25     5.96     5.68     5.41     
 5.14     4.90     4.70     4.49     4.31     4.13     3.95     3.73     3.52     3.33     
 3.14     2.96     2.81     2.66     2.53     2.42     2.33     2.22     2.13     2.11     
 2.11     2.14     2.18     2.25     2.32     2.41     2.50     2.61     2.72     2.85     
 2.99     3.13     3.29     3.46     3.63     3.82     4.02     4.24     4.46     4.70     
 4.96     5.22     5.51     5.79     6.12     6.45     6.78     7.14     7.50     7.87     
 8.26     8.68     9.10     9.53     9.96     10.44    10.93    11.43    11.93    12.44    
 12.97    13.53    14.10    14.68    15.27    15.89    16.55    17.25    17.95    18.73    
 19.57    20.46    21.48    22.53    23.73    25.01    26.49    28.16    29.96    32.00    
 34.37    37.02    40.05    43.59    47.74    52.82    58.93    66.41    75.36    86.37    
 98.94    114.53   130.15   147.98   167.16   186.91   207.43   227.35   246.73   264.54   
 280.11   292.97   302.64   309.20   312.22   312.16   309.43   304.13   297.00   288.47   
 278.90   268.01   256.65   244.76   232.36   219.59   206.09   192.45   178.17   163.97   
 146.37   
577728.25 571242.48 558553.72 533930.71 489569.73 426513.72 353434.43 280824.77 214761.36 155754.01 
 115345.94 90531.17 65892.01 51419.69 40429.38 27832.78 22189.77 18355.87 12081.75 9687.86  
 7341.81  4339.01  3240.28  1423.76  1013.06  617.90   472.49   355.30   256.16   194.80   
 157.63   133.02   114.97   96.99    84.39    72.53    62.83    54.84    47.96    42.52    
 37.80    34.08    30.90    28.02    25.47    23.41    21.40    19.31    17.43    15.24    
 12.92    11.51    10.67    10.01    9.42     8.95     8.57     8.22     7.91     7.63     
 7.37     7.13     6.90     6.68     6.51     6.35     6.19     6.04     5.89     5.71     
 5.52     5.26     5.00     4.68     4.34     4.00     3.64     3.32     3.00     2.62     
 2.42     2.39     2.38     2.44     2.51     2.60     2.69     2.80     2.92     3.05     
 3.19     3.34     3.51     3.69     3.88     4.09     4.32     4.55     4.81     5.07     
 5.35     5.62     5.92     6.24     6.56     6.89     7.23     7.58     7.95     8.32     
 8.70     9.10     9.51     9.92     10.36    10.81    11.27    11.73    12.22    12.72    
 13.22    13.72    14.23    14.77    15.30    15.84    16.43    17.02    17.63    18.27    
 18.96    19.74    20.56    21.47    22.47    23.55    24.83    26.34    28.05    30.04    
 32.28    34.89    37.92    41.58    46.13    51.71    58.37    66.37    75.94    87.45    
 100.69   115.26   131.17   148.74   167.21   185.84   204.47   222.94   240.14   257.34   
 271.02   282.51   291.39   297.85   301.43   302.17   300.44   296.36   290.35   283.01   
 275.40   265.97   255.40   244.62   233.13   220.89   208.33   196.00   183.14   170.41   
 146.37   
577728.25 570698.79 556965.42 530821.82 485206.09 421197.50 348076.39 288897.89 229719.42 170713.31 
 134027.49 107380.09 87420.14 71568.92 58343.97 47580.30 37754.78 29402.89 24913.84 20431.95 
 16914.48 13583.49 10610.78 8702.02  7284.51  6021.80  4925.18  4171.99  3620.83  3126.53  
 2688.72  2251.70  1918.57  1641.94  1386.41  1128.71  907.37   720.15   554.75   425.34   
 333.65   278.53   223.40   168.46   137.46   112.11   91.23    75.61    64.10    54.86    
 47.96    42.35    37.36    33.54    30.22    27.36    25.07    23.22    21.70    20.16    
 18.95    17.77    16.37    15.16    13.86    13.32    13.08    12.85    12.72    12.60    
 12.46    12.30    12.09    11.94    11.75    11.48    11.06    10.23    9.12     7.56     
 5.83     2.97     2.02     2.04     2.09     2.16     2.24     2.32     2.41     2.51     
 2.63     2.75     2.90     3.05     3.22     3.41     3.59     3.79     4.00     4.24     
 4.48     4.73     4.99     5.28     5.55     5.85     6.17     6.50     6.83     7.19     
 7.56     7.95     8.34     8.72     9.13     9.54     9.96     10.42    10.87    11.32    
 11.79    12.29    12.78    13.28    13.77    14.28    14.78    15.31    15.82    16.35    
 16.90    17.49    18.13    18.81    19.61    20.52    21.60    22.84    24.26    25.98    
 28.08    30.55    33.51    37.18    41.69    47.36    54.18    62.52    72.19    83.72    
 96.54    110.89   127.10   143.72   161.15   178.68   196.50   213.24   229.58   244.46   
 257.56   269.17   278.77   286.57   291.88   295.27   297.30   296.23   292.16   287.30   
 281.13   274.16   265.06   254.96   244.24   232.17   220.19   207.86   195.36   182.98   
 146.37   
577728.25 570492.27 557858.51 532537.39 488104.21 424915.37 353070.24 293558.81 234047.44 174764.02 
 137199.90 109441.36 89444.39 73891.87 60910.96 50476.69 42133.00 35410.77 30046.32 25909.99 
 21782.11 18465.80 15676.01 13362.00 11500.10 10103.92 9146.98  8439.31  7896.96  7439.85  
 7042.43  6675.65  6300.04  5954.71  5653.53  5355.62  5067.50  4800.62  4551.34  4312.68  
 4067.39  3830.43  3609.25  3438.58  3269.80  3092.55  2903.89  2724.71  2545.52  2366.55  
 2205.74  2048.63  1890.39  1737.75  1586.20  1444.12  1306.97  1178.31  1055.92  936.03   
 832.52   732.89   636.77   548.59   462.37   382.86   309.26   251.66   194.19   149.42   
 111.01   80.93    59.37    42.90    28.77    16.55    7.22     3.48     2.65     2.42     
 1.89     1.60     1.51     1.43     1.38     1.31     1.26     1.22     1.14     1.03     
 0.97     0.83     0.71     0.70     0.71     0.72     0.74     0.76     0.78     0.81     
 0.85     0.88     0.92     0.96     1.00     1.05     1.09     1.15     1.20     1.26     
 1.31     1.37     1.42     1.47     1.54     1.59     1.66     1.73     1.81     1.87     
 1.95     2.02     2.10     2.18     2.25     2.34     2.42     2.52     2.61     2.72     
 2.83     2.95     3.08     3.23     3.40     3.59     3.80     4.07     4.38     4.75     
 5.20     5.77     6.42     7.23     8.21     9.40     10.73    12.18    13.79    15.59    
 17.54    19.62    21.87    24.27    26.81    29.41    32.11    34.84    37.58    40.29    
 42.98    45.64    48.29    50.93    53.52    56.13    58.71    61.49    64.33    68.39    
 71.88    75.89    80.94    87.30    95.05    104.03   115.28   127.69   141.60   156.47   
 146.37   
577728.25 570133.63 556397.32 530588.78 488283.65 428978.86 360380.07 292084.33 232766.30 182547.75 
 144343.07 116248.80 98434.61 80705.73 67781.93 57212.54 49039.61 42277.13 36806.30 31910.20 
 27593.73 23672.06 20419.00 17494.50 15163.37 13372.71 12035.40 11196.62 10361.53 9811.83  
 9356.61  8970.84  8639.95  8327.89  8074.26  7848.27  7645.26  7432.05  7216.15  7011.59  
 6820.70  6621.57  6423.96  6235.14  6060.36  5880.51  5694.63  5512.30  5351.15  5201.36  
 5054.45  4918.72  4779.11  4631.49  4479.41  4323.30  4169.14  4017.00  3867.28  3713.18  
 3560.64  3410.12  3266.78  3112.75  2957.42  2797.29  2635.93  2478.94  2319.59  2162.62  
 2012.06  1860.74  1717.41  1566.97  1422.03  1285.92  1169.60  1053.47  937.33   838.18   
 750.22   672.45   600.44   541.49   490.24   445.17   407.96   376.24   350.28   322.90   
 296.64   274.98   262.13   251.37   234.47   218.22   203.86   190.29   178.87   167.48   
 157.03   148.13   139.85   132.82   126.13   119.45   112.76   107.83   102.67   97.10    
 91.88    86.74    81.53    76.40    71.45    66.44    61.88    57.48    53.15    48.89    
 44.79    40.98    36.94    32.76    28.43    24.32    20.24    16.16    12.30    8.37     
 6.32     4.75     3.44     2.53     2.30     2.30     2.44     2.62     2.82     3.08     
 3.39     3.79     4.31     4.94     5.78     6.82     8.01     9.32     10.87    12.59    
 14.48    16.46    18.65    20.98    23.41    25.86    28.40    30.89    33.34    35.69    
 37.94    40.15    42.21    44.24    46.18    48.11    50.16    52.32    55.17    58.08    
 60.92    64.39    68.87    74.65    81.90    90.73    101.92   115.27   129.83   146.01   
 146.37   
577728.25 571392.16 559846.09 539279.72 503136.59 451707.84 389598.54 324083.35 265293.38 206670.80 
 164056.05 134065.48 111899.98 94839.10 80932.08 70215.71 61818.82 54776.60 48489.84 43022.72 
 38051.62 33457.78 29241.17 25751.18 22270.64 19616.74 17331.37 15426.69 13887.08 12639.81 
 11656.23 10898.42 10346.26 9953.88  9678.66  9448.52  9226.32  9003.37  8783.33  8574.51  
 8372.53  8176.77  7993.09  7796.61  7594.71  7407.84  7211.05  7018.23  6823.94  6639.36  
 6469.54  6302.53  6138.10  5957.80  5770.24  5584.36  5405.13  5215.84  5016.60  4817.72  
 4615.22  4409.62  4210.84  4016.44  3823.35  3629.37  3437.39  3247.27  3044.24  2827.38  
 2618.38  2409.70  2227.27  2046.03  1867.71  1686.04  1518.87  1370.12  1227.85  1097.74  
 977.72   874.48   785.47   711.14   650.20   599.20   558.78   521.32   490.71   459.19   
 429.58   403.06   380.23   362.54   347.07   332.18   318.53   304.81   292.94   282.06   
 271.12   262.03   253.80   246.13   238.72   231.32   224.96   219.61   214.93   210.26   
 205.93   201.82   197.98   194.16   190.36   186.95   183.13   179.59   175.92   172.15   
 168.49   164.60   160.44   156.22   151.95   147.19   142.66   137.99   133.08   128.22   
 123.26   118.38   113.48   108.22   103.12   97.57    91.68    85.68    80.14    74.29    
 68.32    62.79    57.29    51.49    46.02    42.11    32.80    14.76    11.40    10.14    
 11.36    13.33    15.57    18.00    20.61    23.32    26.16    29.00    31.91    34.78    
 37.56    40.19    42.68    45.10    47.35    49.39    51.17    52.92    54.54    56.25    
 58.25    61.31    64.53    68.66    74.27    82.27    92.40    104.93   119.63   136.23   
 146.37   
577728.25 571739.84 560433.47 541853.72 511558.38 467064.96 408782.36 344251.25 281712.92 225034.01 
 178947.17 145508.68 121419.18 105556.22 89759.45 79056.53 70777.09 63725.97 57431.75 51207.79 
 45761.19 40562.29 35909.94 31518.80 27788.93 24621.11 21978.93 19635.48 17571.52 15786.19 
 14279.46 13055.28 12113.68 11601.94 11093.92 10585.91 10236.52 9903.21  9592.08  9328.20  
 9094.35  8878.37  8669.35  8464.79  8267.47  8070.22  7882.16  7704.59  7522.29  7323.15  
 7126.81  6941.55  6755.20  6574.43  6392.51  6195.79  5982.14  5763.94  5538.11  5307.01  
 5085.47  4865.02  4640.37  4400.90  4162.49  3941.28  3721.42  3497.98  3278.50  3047.05  
 2821.91  2612.03  2398.05  2186.25  1989.65  1800.40  1614.01  1440.44  1282.58  1160.60  
 1038.93  917.26   824.87   747.28   685.58   634.19   585.74   544.24   512.11   482.81   
 452.98   423.14   399.38   378.25   361.80   350.33   341.79   334.61   327.02   319.16   
 311.94   305.12   299.42   294.03   289.43   285.81   282.78   280.08   277.52   274.83   
 272.22   269.74   268.09   266.39   264.70   263.13   261.40   259.45   257.67   255.93   
 253.89   251.98   249.25   245.57   241.75   237.54   233.02   228.20   223.14   218.23   
 213.37   208.24   202.77   197.26   191.36   185.71   179.67   173.47   167.13   160.53   
 153.56   147.17   140.78   134.70   128.14   120.24   112.33   104.38   97.79    91.78    
 84.56    77.53    70.58    67.34    64.41    46.74    31.30    31.58    33.33    35.42    
 37.30    39.49    42.47    45.63    48.75    51.72    54.27    56.32    58.09    59.52    
 60.81    62.06    63.73    66.23    70.14    76.34    84.99    96.41    110.38   126.97   
 146.37   
577728.25 573139.03 564238.82 550277.51 527740.52 492500.84 441938.95 380604.15 313646.82 255862.09 
 198284.37 159990.13 132155.15 111296.60 95789.11 83296.92 73604.67 65507.13 58541.39 52173.96 
 46517.71 41205.80 36057.28 31808.02 28066.77 25377.30 22696.69 20760.04 19199.99 17953.49 
 16794.70 15766.11 14923.45 14180.28 13554.48 12967.58 12432.09 11893.86 11460.12 11061.02 
 10690.96 10348.84 10037.48 9739.83  9455.18  9189.92  8946.50  8692.95  8425.74  8151.22  
 7898.31  7651.74  7401.80  7138.65  6876.41  6617.07  6368.09  6117.02  5857.06  5587.57  
 5356.38  5126.32  4890.15  4644.53  4407.43  4161.23  3907.93  3663.87  3424.61  3187.03  
 2956.25  2727.07  2497.89  2268.97  2061.68  1865.66  1679.70  1503.84  1339.03  1195.75  
 1070.67  959.80   863.33   786.85   719.57   663.09   609.90   562.38   527.71   496.87   
 466.27   434.36   404.29   380.61   360.24   344.47   331.89   324.58   325.84   332.06   
 335.15   334.36   333.24   332.73   332.86   333.48   334.74   336.31   338.09   339.91   
 341.79   344.61   347.13   349.73   351.94   353.49   353.70   353.39   352.68   350.40   
 346.65   340.65   333.74   326.61   319.80   313.37   306.72   299.90   293.13   286.70   
 280.22   273.77   267.78   261.60   254.95   248.12   239.98   231.84   223.69   214.55   
 205.60   196.07   188.28   180.19   173.32   166.30   159.96   153.69   147.35   142.13   
 135.98   129.66   119.66   113.44   108.31   104.54   96.76    89.56    86.77    79.52    
 43.31    41.02    43.57    46.24    49.25    52.71    56.27    59.58    62.34    64.47    
 66.02    67.15    68.09    69.21    71.31    74.88    80.91    90.23    102.77   118.39   
 146.37   
577728.25 573524.59 565574.12 554426.35 537432.24 508589.39 461129.12 397756.41 327156.27 259732.26 
 203609.98 162937.26 133516.22 115812.92 98204.05 80595.16 70444.35 62654.38 55819.25 49751.54 
 44489.07 39755.58 35501.10 31978.24 29137.80 26987.25 25522.70 24371.26 23282.15 22288.41 
 21232.40 20227.15 19333.02 18514.99 17705.51 16943.57 16110.81 15305.18 14517.74 13807.24 
 13188.34 12649.31 12099.18 11616.98 11135.39 10653.81 10230.52 9820.16  9434.75  9057.97  
 8684.67  8329.60  7989.92  7673.62  7364.34  7015.46  6608.91  6243.97  5936.71  5647.16  
 5373.40  5112.10  4866.59  4616.43  4376.64  4143.75  3914.94  3696.58  3467.88  3235.90  
 2994.66  2758.56  2517.55  2285.44  2068.64  1870.00  1687.16  1508.86  1349.84  1209.43  
 1093.91  978.59   884.47   805.03   738.75   681.18   626.23   576.96   540.81   508.18   
 477.14   440.63   409.69   379.91   356.58   335.91   320.88   309.01   301.01   301.63   
 313.16   329.30   343.81   358.17   370.98   381.14   389.92   397.59   404.25   410.70   
 417.09   423.49   430.19   437.50   442.74   444.98   444.39   441.84   436.99   430.35   
 422.14   412.49   401.54   390.75   379.69   368.42   357.46   347.01   337.32   328.44   
 319.95   311.59   303.32   295.18   287.74   269.85   259.09   253.56   247.43   240.91   
 234.74   228.09   220.91   212.83   205.08   197.11   189.19   181.66   174.18   165.87   
 159.24   154.28   149.37   144.32   135.65   128.76   122.17   119.25   113.41   104.05   
 96.28    89.31    49.16    49.69    53.39    56.79    60.28    64.07    67.36    70.36    
 72.66    74.19    75.14    75.81    77.03    79.91    85.37    94.33    106.27   121.71   
 146.37   
577728.25 574898.37 569043.19 561092.35 549434.36 528037.68 487933.85 428397.61 357709.91 295977.10 
 234244.34 172819.63 139375.97 113914.58 95214.44 81123.58 70513.19 62667.10 56133.64 50539.53 
 45919.27 41819.58 38386.44 35251.01 32972.69 31445.26 30358.30 29490.41 28800.30 28136.71 
 27386.49 26443.32 25377.03 24246.87 23116.13 21933.33 20735.35 19472.17 18309.24 17236.74 
 16238.03 15322.54 14490.51 13798.99 13177.54 12593.96 11996.44 11370.46 10773.11 10197.09 
 9664.93  9189.69  8759.56  8325.60  7871.93  7443.51  6832.42  6320.79  6041.27  5800.79  
 5547.86  5289.75  5000.96  4719.45  4444.69  4172.10  3910.08  3662.93  3421.11  3190.45  
 2956.60  2722.84  2489.35  2277.86  2079.71  1888.72  1709.11  1536.46  1378.79  1238.52  
 1113.55  1000.56  903.34   821.68   752.04   690.41   632.60   579.90   541.39   506.40   
 474.33   441.09   407.59   374.44   348.39   326.22   307.55   293.99   282.39   275.35   
 278.02   294.34   320.90   346.73   368.61   387.62   404.72   419.83   431.51   440.15   
 443.95   444.41   443.27   441.39   438.82   435.89   431.95   427.02   421.30   414.44   
 405.70   396.68   387.23   377.91   368.76   359.19   350.74   342.51   334.67   327.10   
 319.61   312.31   304.73   297.19   289.75   282.51   270.84   255.96   250.04   244.67   
 237.95   231.23   224.80   218.07   211.42   204.78   198.10   191.58   185.06   178.46   
 171.48   165.44   160.27   155.66   151.24   146.77   141.94   134.14   123.38   118.60   
 105.01   97.28    81.88    53.61    57.06    60.32    64.34    68.50    72.49    76.12    
 79.10    81.29    82.70    83.38    83.75    85.17    88.71    95.76    108.02   125.63   
 146.37   
577728.25 575521.86 570625.20 563921.93 554625.27 536309.17 499545.53 441492.30 371748.47 296032.93 
 228547.04 178616.76 142953.15 116331.52 99421.61 82587.61 71595.30 63472.62 56790.68 51088.18 
 46150.94 41790.90 38010.29 34571.43 31951.78 30218.79 29095.46 28323.88 27766.41 27302.06 
 26759.44 26006.25 25104.62 24138.29 23056.52 21942.07 20716.38 19422.41 18218.43 17090.97 
 16079.02 15099.85 14223.91 13400.39 12704.08 12068.31 11483.18 10898.48 10377.11 9872.72  
 9440.40  9035.91  8634.49  8241.13  7924.50  7657.16  7221.98  6637.54  6216.99  5903.87  
 5635.41  5378.83  5130.07  4855.30  4603.55  4369.69  4134.38  3903.47  3660.55  3411.91  
 3158.40  2910.07  2672.08  2435.53  2212.63  2013.13  1820.68  1633.51  1467.26  1318.87  
 1182.68  1073.19  963.91   876.59   802.20   738.73   679.52   624.02   580.52   545.26   
 512.27   476.36   443.07   409.45   382.41   357.30   337.02   321.93   308.57   300.54   
 303.23   319.00   339.54   356.83   369.13   376.36   379.26   379.42   378.47   377.51   
 376.68   375.38   374.50   373.54   371.94   368.89   364.76   359.42   353.15   346.18   
 339.59   333.39   326.55   320.23   313.73   307.75   301.95   296.24   290.33   284.65   
 278.77   272.75   266.91   260.98   254.96   247.43   236.17   230.67   225.74   221.07   
 216.46   211.02   205.61   200.03   194.14   188.95   183.80   178.22   172.82   166.76   
 161.52   157.34   152.94   148.27   140.97   135.37   131.13   125.35   119.56   103.42   
 97.73    93.49    56.96    56.83    60.18    64.56    69.36    74.01    78.34    82.07    
 85.21    87.75    89.63    90.82    91.80    92.91    95.71    101.50   111.15   125.50   
 146.37   
577728.25 577134.02 573548.15 567992.79 559828.81 545176.98 514283.20 465383.09 399823.79 326960.37 
 262317.97 197940.71 157686.64 128368.65 106762.07 90797.37 78417.07 69172.10 61299.88 54799.64 
 49016.84 43852.21 39105.58 34583.73 30705.07 27727.05 25994.68 24262.32 22539.80 21607.33 
 20768.91 19895.73 18989.85 18180.96 17507.05 16848.31 16077.10 15324.60 14561.65 13862.94 
 13207.42 12641.97 12117.21 11639.05 11163.86 10703.96 10284.40 9920.45  9579.11  9217.97  
 8842.77  8498.75  8180.99  7880.00  7573.38  7267.34  6978.44  6714.71  6442.63  6141.30  
 5842.03  5580.99  5333.10  5079.57  4822.55  4548.71  4268.57  3999.32  3736.29  3490.68  
 3260.33  3032.35  2800.45  2568.56  2337.01  2131.62  1928.48  1738.40  1561.42  1399.96  
 1252.96  1119.96  1003.15  904.80   822.93   752.59   692.97   637.73   590.51   554.00   
 521.96   490.81   457.90   426.38   399.30   375.41   354.81   338.83   325.90   322.20   
 328.05   333.89   334.29   331.75   328.48   325.56   323.02   320.27   317.08   313.59   
 310.01   306.78   303.73   301.03   298.54   296.27   293.82   290.80   287.92   285.17   
 281.98   278.14   273.94   269.14   264.51   259.84   255.38   250.62   245.80   240.15   
 234.51   230.33   225.18   220.79   216.13   211.32   206.87   202.04   197.52   192.57   
 186.76   180.12   173.77   166.29   160.37   155.06   150.67   146.27   142.29   139.84   
 135.28   130.50   122.32   116.44   112.21   107.26   103.06   96.47    91.82    83.10    
 53.96    51.13    54.25    58.28    63.32    68.69    73.90    78.92    83.48    87.55    
 91.22    94.70    97.37    99.58    101.41   103.07   106.13   111.27   118.91   129.65   
 146.37   
577728.25 577806.60 574787.16 569437.83 560572.21 544724.99 514742.81 468752.46 407331.63 335249.04 
 265571.92 207870.32 164253.98 133468.88 116685.87 100012.31 83338.75 73683.21 65619.51 58458.74 
 52305.79 46753.10 41499.31 36633.08 32107.53 28208.18 25080.37 22430.49 20185.11 18403.53 
 16927.77 15641.26 14554.81 13688.37 13006.40 12437.13 11987.90 11611.40 11235.46 10907.54 
 10598.98 10285.79 9996.67  9740.34  9502.81  9284.36  9048.76  8801.75  8563.50  8322.10  
 8079.73  7836.69  7604.50  7374.42  7155.21  6920.42  6674.63  6422.30  6161.07  5896.95  
 5639.65  5384.31  5143.95  4901.74  4654.68  4412.00  4182.63  3946.95  3713.22  3472.66  
 3229.64  3006.32  2783.36  2567.43  2354.38  2149.81  1952.54  1749.32  1568.96  1405.30  
 1258.69  1140.47  1022.48  904.48   814.78   742.36   683.04   630.56   583.76   546.81   
 515.39   485.07   455.01   424.39   398.58   377.29   360.69   349.32   342.51   335.82   
 328.01   320.33   311.99   304.77   297.91   291.66   286.25   280.88   275.80   271.21   
 267.10   263.13   259.19   254.96   251.29   248.01   244.95   241.90   238.58   235.69   
 232.85   230.06   227.09   224.12   220.89   217.05   213.20   208.92   204.87   200.77   
 196.75   192.08   187.88   183.43   178.80   174.47   169.62   164.73   159.71   154.82   
 149.16   143.00   136.63   130.73   124.07   117.42   111.25   103.18   96.49    89.72    
 83.45    78.10    71.71    67.90    65.15    61.22    36.49    35.96    38.25    41.85    
 46.11    51.51    57.14    62.85    68.29    73.52    78.31    82.61    86.48    90.03    
 93.67    97.61    101.19   104.40   106.92   109.77   114.25   120.42   128.23   137.95   
 146.37   
577728.25 579454.45 577735.16 572995.13 564207.83 548413.96 520283.29 478260.25 421627.72 354394.43 
 294200.60 234006.78 174080.56 137971.71 112780.01 95086.97 81674.45 71131.03 63007.93 56260.12 
 50240.98 44333.17 38827.86 33869.03 29568.12 25953.12 22348.10 19581.39 17319.35 15583.25 
 14212.70 13112.49 12184.07 11490.27 10965.88 10567.88 10223.67 9909.99  9632.13  9393.04  
 9173.51  8945.66  8745.44  8555.37  8374.49  8187.53  7996.42  7792.86  7590.89  7386.97  
 7187.85  6986.80  6792.62  6602.17  6411.58  6219.91  6038.69  5857.88  5677.43  5493.58  
 5294.04  5091.64  4885.58  4675.52  4466.35  4249.01  4036.41  3815.47  3603.77  3391.97  
 3171.41  2957.79  2753.53  2549.28  2345.14  2150.69  1955.92  1772.99  1603.82  1443.15  
 1291.26  1147.08  1022.79  913.49   823.73   741.65   676.18   621.40   577.88   540.13   
 510.27   481.91   452.69   427.39   404.58   388.17   374.96   361.20   346.02   330.77   
 317.39   305.11   293.79   283.04   273.16   264.07   255.98   248.33   241.07   233.83   
 228.05   222.79   217.81   213.02   208.15   203.64   199.45   195.29   191.37   187.34   
 183.45   179.33   175.26   171.05   166.46   162.06   157.50   152.54   147.25   142.27   
 137.24   131.88   126.58   120.98   115.53   109.75   103.77   98.09    92.42    86.74    
 80.66    74.26    67.99    61.56    55.38    49.26    43.64    36.70    17.78    13.08    
 12.42    13.84    16.36    19.26    22.55    26.19    30.25    34.68    39.49    44.60    
 49.92    55.31    60.72    66.08    71.25    76.19    80.72    84.98    88.88    92.52    
 95.96    99.88    103.93   107.92   111.48   115.85   121.86   128.95   137.37   147.07   
 146.37   
577728.25 580369.15 579316.62 574536.51 565710.17 548863.28 518101.76 472913.91 413493.92 344410.70 
 275121.44 214016.12 166056.69 130450.47 110485.97 90643.87 70801.76 59857.16 51253.64 44100.09 
 38086.94 33139.92 28646.98 24507.34 20863.18 17834.90 15510.90 13789.23 12507.43 11809.42 
 11117.05 10424.68 9984.78  9603.50  9277.45  9002.60  8761.60  8548.25  8357.80  8168.61  
 8014.01  7854.92  7693.77  7519.73  7338.73  7141.17  6911.66  6693.16  6472.74  6270.83  
 6080.47  5894.50  5713.39  5529.12  5352.85  5179.89  5008.56  4844.08  4682.49  4510.04  
 4341.13  4166.68  3998.95  3834.51  3661.24  3493.93  3329.09  3165.88  2993.42  2818.07  
 2642.70  2465.71  2293.61  2115.86  1942.07  1783.59  1634.92  1486.74  1342.99  1213.77  
 1095.84  978.01   869.71   771.57   692.74   623.20   563.02   508.72   462.45   425.96   
 395.62   371.22   345.23   321.52   305.03   296.95   286.66   271.50   255.94   241.81   
 226.57   214.56   203.15   191.83   181.25   172.36   163.43   154.99   147.85   141.29   
 134.64   128.78   122.39   116.00   109.93   104.02   98.40    92.97    87.36    82.14    
 77.10    72.50    67.57    62.56    57.92    53.10    48.35    43.48    38.66    33.93    
 27.83    21.42    15.05    10.61    8.47     6.73     5.39     4.84     4.84     5.16     
 5.52     5.97     6.49     7.07     7.79     8.70     9.76     11.03    12.62    14.43    
 16.50    18.84    21.50    24.48    27.75    31.25    35.18    39.37    43.85    48.44    
 53.16    58.02    62.79    67.67    72.42    77.18    81.85    86.36    90.85    95.10    
 99.27    103.43   107.87   112.40   117.13   123.01   129.96   138.16   147.56   158.08   
 146.37   
577728.25 580826.46 579957.16 575553.55 566050.84 548458.07 514762.06 463122.89 395634.05 323684.28 
 255249.94 196931.72 151001.23 116110.91 94146.80 72319.37 58429.95 47619.57 39202.97 32847.13 
 27772.81 23712.11 20293.73 17282.22 14737.61 12641.01 11448.82 10266.07 9083.31  8480.81  
 7995.49  7559.94  7178.56  6853.01  6556.28  6284.90  6026.91  5806.42  5586.53  5371.59  
 5171.79  4991.22  4781.92  4584.18  4376.65  4200.77  4019.70  3837.37  3665.76  3489.49  
 3321.59  3161.24  3000.59  2845.10  2699.98  2558.57  2420.77  2295.72  2164.85  2031.93  
 1908.93  1790.72  1670.66  1556.92  1450.00  1343.17  1237.52  1140.19  1042.95  945.71   
 859.67   774.52   691.61   615.85   547.61   482.58   421.77   366.06   317.38   274.29   
 236.10   201.90   171.93   146.10   124.04   96.25    68.38    53.44    41.62    31.24    
 23.22    17.83    13.12    8.71     4.68     3.07     2.95     3.00     3.08     3.18     
 3.28     3.39     3.50     3.63     3.75     3.87     3.99     4.14     4.28     4.45     
 4.64     4.83     5.03     5.25     5.47     5.71     5.97     6.24     6.52     6.82     
 7.12     7.44     7.78     8.12     8.47     8.83     9.21     9.57     9.95     10.32    
 10.69    11.07    11.47    11.88    12.31    12.78    13.30    13.91    14.69    15.60    
 16.69    18.02    19.65    21.70    24.26    27.40    31.26    36.00    41.82    49.07    
 58.26    68.81    80.71    93.65    107.33   121.95   138.80   155.97   172.89   189.08   
 205.18   220.93   234.66   248.36   259.38   268.23   274.95   279.95   282.40   282.38   
 280.03   275.60   269.39   261.77   252.50   242.05   230.43   217.51   203.47   188.57   
 146.37   
577728.25 581311.74 581156.24 576823.92 567805.41 550050.44 515810.60 461695.12 391103.80 316581.29 
 253178.08 189927.36 145246.30 109862.95 82200.29 61541.44 47796.49 38517.81 31570.66 26213.73 
 20864.16 16485.06 13613.61 11232.43 9242.88  7499.52  5942.83  4910.71  4278.55  3779.82  
 3351.31  2939.81  2606.86  2274.56  2022.64  1805.22  1597.30  1387.20  1209.69  1032.45  
 871.34   726.10   607.93   499.94   412.01   332.44   277.00   221.56   166.34   135.37   
 111.90   92.48    79.13    68.57    58.97    50.53    44.95    40.32    36.68    33.49    
 30.68    28.29    26.44    24.89    23.64    22.50    21.20    19.84    18.70    18.08    
 17.95    17.94    18.19    18.55    18.71    18.83    19.14    19.25    19.35    19.09    
 18.12    16.25    12.86    8.18     3.01     2.00     2.03     2.08     2.15     2.23     
 2.32     2.41     2.52     2.64     2.77     2.92     3.07     3.23     3.40     3.59     
 3.77     3.98     4.18     4.39     4.61     4.83     5.07     5.32     5.56     5.82     
 6.10     6.39     6.68     6.97     7.28     7.59     7.94     8.30     8.66     9.01     
 9.39     9.77     10.16    10.55    10.94    11.33    11.74    12.14    12.55    12.96    
 13.37    13.79    14.27    14.79    15.35    15.97    16.70    17.57    18.57    19.73    
 21.15    22.85    24.80    27.17    30.01    33.42    37.67    42.78    48.94    56.69    
 65.59    76.09    87.93    101.10   116.30   131.51   147.88   164.18   180.95   197.40   
 212.86   227.58   240.56   252.20   261.85   269.87   275.88   279.93   281.73   281.15   
 278.40   273.53   266.76   258.47   248.67   237.78   225.51   212.19   197.49   181.36   
 146.37   
577728.25 580941.13 580071.12 574714.45 563962.03 543180.21 490576.28 410411.48 318839.01 244997.98 
 180521.30 126483.56 97261.45 68315.22 45475.40 35393.10 29060.53 20316.95 14369.61 11732.85 
 8583.21  5426.93  4224.34  1788.37  1403.25  1040.81  678.37   509.02   395.10   292.18   
 224.53   187.55   160.48   140.25   124.02   107.83   91.64    80.89    71.88    63.61    
 56.68    50.17    45.00    40.78    37.12    33.82    31.27    28.59    26.33    23.92    
 21.48    18.65    16.05    13.65    12.12    11.07    10.16    9.57     9.16     8.84     
 8.60     8.41     8.14     7.92     7.73     7.65     7.53     7.37     7.25     7.15     
 7.07     6.94     6.75     6.60     6.42     6.14     5.71     5.21     4.71     4.17     
 3.54     2.91     2.53     2.43     2.42     2.46     2.54     2.63     2.71     2.82     
 2.94     3.06     3.22     3.38     3.56     3.76     3.96     4.18     4.41     4.64     
 4.89     5.14     5.40     5.67     5.96     6.24     6.54     6.85     7.16     7.48     
 7.80     8.14     8.49     8.84     9.21     9.59     9.97     10.37    10.77    11.17    
 11.58    12.00    12.42    12.85    13.28    13.71    14.16    14.63    15.09    15.59    
 16.08    16.63    17.26    17.94    18.70    19.56    20.54    21.64    22.94    24.43    
 26.08    27.99    30.19    32.91    36.19    40.03    44.62    50.09    56.55    64.33    
 74.23    85.58    98.31    112.15   126.87   142.35   160.04   177.96   195.05   211.08   
 226.60   240.70   254.79   264.55   272.80   278.51   282.09   283.72   283.26   281.29   
 277.02   271.32   263.92   255.29   245.34   233.84   220.81   206.44   190.68   173.45   
 146.37   
577728.25 580720.18 579646.95 574192.10 559569.92 496885.87 421118.21 346529.28 267583.61 188709.47 
 119354.86 86594.20 61985.32 38195.78 26888.47 15647.68 11595.88 6632.17  1714.19  1374.87  
 1050.87  759.81   562.97   424.00   337.26   250.51   164.16   121.94   98.82    83.57    
 72.33    63.37    56.05    51.11    46.69    42.83    39.31    35.39    32.29    29.47    
 26.58    23.56    20.62    17.83    15.73    14.02    12.82    11.73    10.89    10.24    
 9.70     9.15     8.53     7.94     7.45     7.04     6.65     6.35     6.07     5.76     
 5.50     5.28     5.08     4.90     4.72     4.56     4.35     4.20     4.09     3.99     
 3.89     3.75     3.59     3.44     3.31     3.17     3.03     2.91     2.79     2.67     
 2.62     2.62     2.64     2.66     2.72     2.78     2.85     2.93     3.01     3.10     
 3.20     3.30     3.42     3.55     3.71     3.88     4.07     4.26     4.46     4.68     
 4.92     5.16     5.41     5.67     5.95     6.24     6.55     6.87     7.20     7.53     
 7.89     8.28     8.67     9.05     9.43     9.83     10.26    10.70    11.14    11.57    
 12.01    12.47    12.95    13.44    13.93    14.43    14.95    15.50    16.06    16.65    
 17.29    17.98    18.75    19.59    20.55    21.62    22.79    24.12    25.60    27.28    
 29.18    31.37    33.79    36.63    39.89    43.77    48.39    53.96    60.65    68.89    
 78.47    89.95    102.76   118.44   134.12   151.59   170.00   188.59   207.52   225.53   
 242.28   257.20   269.73   279.91   287.22   291.71   293.60   292.84   289.61   284.51   
 277.77   270.04   261.29   251.29   240.03   227.56   213.60   198.48   181.79   164.15   
 146.37   
577728.25 579708.41 577522.75 570404.88 514350.25 440796.80 366438.94 279640.58 189224.75 132776.05 
 97926.42 63324.11 28721.81 18508.94 9946.05  1397.93  1226.20  882.85   536.22   467.27   
 356.04   274.06   214.56   178.67   148.76   120.54   92.34    82.48    74.24    63.72    
 52.88    44.31    37.75    33.91    30.43    26.55    23.00    19.64    17.06    15.55    
 14.57    13.77    12.97    12.41    12.02    11.65    10.89    10.49    9.99     9.28     
 8.49     7.73     6.89     6.05     5.60     5.46     5.31     5.14     4.97     4.77     
 4.58     4.39     4.19     4.01     3.84     3.70     3.56     3.41     3.28     3.16     
 3.05     2.95     2.87     2.79     2.72     2.68     2.63     2.57     2.54     2.53     
 2.53     2.53     2.56     2.61     2.66     2.73     2.81     2.90     2.99     3.09     
 3.19     3.31     3.44     3.58     3.73     3.91     4.09     4.27     4.48     4.71     
 4.94     5.18     5.44     5.71     6.01     6.32     6.64     6.99     7.35     7.72     
 8.11     8.52     8.95     9.40     9.83     10.30    10.78    11.26    11.75    12.24    
 12.76    13.30    13.83    14.39    14.97    15.56    16.19    16.82    17.46    18.12    
 18.85    19.65    20.53    21.48    22.51    23.71    25.07    26.60    28.26    30.11    
 32.18    34.49    37.19    40.19    43.63    47.69    52.59    58.39    65.37    74.03    
 84.63    96.90    110.81   126.03   142.91   161.50   180.64   200.27   220.55   239.80   
 259.04   274.63   287.18   296.48   302.43   304.99   304.63   301.49   295.91   288.42   
 279.40   268.95   257.40   245.96   233.55   219.63   204.91   189.32   172.74   154.86   
 146.37   
577728.25 578776.48 576375.61 568153.91 502297.84 421625.77 337740.37 248615.89 159775.87 108907.48 
 65516.62 49290.73 33064.84 16838.94 757.72   765.19   591.53   424.78   287.66   216.22   
 144.81   76.34    49.63    35.00    28.23    23.65    20.54    18.35    16.90    16.06    
 15.48    14.85    13.86    12.52    10.64    9.10     8.16     7.42     6.71     6.22     
 5.93     5.75     5.71     5.61     5.46     5.34     5.18     5.01     4.85     4.64     
 4.43     4.33     4.20     4.01     3.88     3.76     3.63     3.47     3.38     3.29     
 3.24     3.18     3.13     3.07     3.01     2.96     2.90     2.84     2.79     2.73     
 2.69     2.66     2.59     2.55     2.52     2.48     2.47     2.46     2.46     2.48     
 2.49     2.51     2.53     2.56     2.60     2.65     2.70     2.75     2.82     2.90     
 2.97     3.05     3.14     3.26     3.39     3.53     3.68     3.85     4.04     4.26     
 4.50     4.74     5.02     5.31     5.63     5.97     6.34     6.73     7.14     7.56     
 8.00     8.47     8.96     9.45     9.94     10.47    11.00    11.56    12.11    12.65    
 13.22    13.81    14.44    15.08    15.71    16.38    17.10    17.84    18.61    19.39    
 20.21    21.10    22.04    23.06    24.16    25.36    26.67    28.13    29.74    31.50    
 33.51    35.82    38.35    41.34    44.75    48.83    53.63    59.56    66.74    75.89    
 86.83    100.04   116.17   132.31   150.59   169.92   190.24   210.26   230.76   250.50   
 269.29   286.14   299.60   309.70   315.36   317.38   315.87   311.20   304.26   295.42   
 285.53   274.08   261.80   248.57   235.33   221.48   206.77   191.48   174.85   157.61   
 146.37   
577728.25 577284.98 573210.13 561903.38 485887.10 402390.20 314614.27 215580.98 145332.98 105915.60 
 66861.54 27807.47 14125.22 726.38   408.38   229.96   51.55    36.71    27.87    22.18    
 18.82    16.43    14.51    12.90    11.95    10.92    9.87     9.55     9.25     9.82     
 10.22    9.70     8.68     7.69     7.31     7.05     6.98     6.64     6.59     6.30     
 6.00     5.86     5.73     5.39     5.17     5.13     5.10     4.92     4.67     4.44     
 4.39     4.32     4.32     4.26     4.22     4.20     4.05     3.95     3.90     3.85     
 3.71     3.63     3.58     3.52     3.45     3.35     3.30     3.25     3.23     3.20     
 3.18     3.15     3.13     3.10     3.07     3.05     3.04     3.03     3.03     3.03     
 3.03     3.07     3.18     3.36     3.48     3.58     3.68     3.74     3.78     3.82     
 3.88     3.94     3.98     3.99     4.05     4.12     4.21     4.33     4.50     4.70     
 4.92     5.18     5.47     5.79     6.16     6.54     6.96     7.40     7.85     8.31     
 8.76     9.19     9.59     10.00    10.43    10.90    11.39    11.90    12.48    13.08    
 13.70    14.36    15.04    15.75    16.49    17.28    18.11    18.99    19.88    20.81    
 21.80    22.82    23.89    24.98    26.07    27.21    28.45    29.81    31.31    32.94    
 34.75    36.87    39.30    42.32    45.96    50.24    55.37    61.64    69.29    79.14    
 91.74    106.53   123.17   141.03   159.41   179.01   200.43   221.33   241.32   261.30   
 279.75   296.49   309.43   318.20   323.08   323.61   320.69   314.59   306.16   296.76   
 286.06   274.35   261.90   249.14   236.20   222.66   208.81   194.49   179.29   163.06   
 146.37   
