IESNA:LM-63-2002
[TEST] 1
[TESTLAB] AOK
[TESTDATE] 2022-07-02
[ISSUEDATE] 2022-07-02 15:36:11
[NEARFIELD] 
[LAMPPOSITION] 0,0
[OTHER] EVERFINE GO-2000A_V1 SYSTEM
[MANUFAC] AOK
[LUMCAT] A
[LUMINAIRE] AOK-800WiSF-NV-S35-00-5070-2030D-P
[LAMPCAT] B
[LAMP] 3535
[BALLAST] E
[BALLASTCAT] F
[OTHER] 
[OTHER] Gamma(deg)    Fz(lm)      Ft(lm)     %Lum    %Lamp
[OTHER]   0- 10     30989.99    30989.99    30.94    30.94
[OTHER]  10- 20     35854.94    66844.92    66.75    66.75
[OTHER]  20- 30     15040.63    81885.55    81.76    81.76
[OTHER]  30- 40      6613.21    88498.76    88.37    88.37
[OTHER]  40- 50      3972.24    92471.00    92.33    92.33
[OTHER]  50- 60      3033.02    95504.02    95.36    95.36
[OTHER]  60- 70      2057.82    97561.85    97.42    97.42
[OTHER]  70- 80      1114.41    98676.26    98.53    98.53
[OTHER]  80- 90       519.54    99195.80    99.05    99.05
[OTHER]  90-100       282.18    99477.98    99.33    99.33
[OTHER] 100-110       189.21    99667.19    99.52    99.52
[OTHER] 110-120       138.04    99805.23    99.66    99.66
[OTHER] 120-130        96.98    99902.21    99.75    99.75
[OTHER] 130-140        63.60    99965.82    99.82    99.82
[OTHER] 140-150        47.64   100013.46    99.87    99.87
[OTHER] 150-160        55.69   100069.15    99.92    99.92
[OTHER] 160-170        57.50   100126.64    99.98    99.98
[OTHER] 170-180        21.51   100148.15   100.00   100.00
[OTHER] 
TILT=NONE
1 1.0015e+005 1 181 25 1 2 0.150 0.200 0.000
1.000 1 786.752
0.0    1.0    2.0    3.0    4.0    5.0    6.0    7.0    8.0    9.0    
 10.0   11.0   12.0   13.0   14.0   15.0   16.0   17.0   18.0   19.0   
 20.0   21.0   22.0   23.0   24.0   25.0   26.0   27.0   28.0   29.0   
 30.0   31.0   32.0   33.0   34.0   35.0   36.0   37.0   38.0   39.0   
 40.0   41.0   42.0   43.0   44.0   45.0   46.0   47.0   48.0   49.0   
 50.0   51.0   52.0   53.0   54.0   55.0   56.0   57.0   58.0   59.0   
 60.0   61.0   62.0   63.0   64.0   65.0   66.0   67.0   68.0   69.0   
 70.0   71.0   72.0   73.0   74.0   75.0   76.0   77.0   78.0   79.0   
 80.0   81.0   82.0   83.0   84.0   85.0   86.0   87.0   88.0   89.0   
 90.0   91.0   92.0   93.0   94.0   95.0   96.0   97.0   98.0   99.0   
 100.0  101.0  102.0  103.0  104.0  105.0  106.0  107.0  108.0  109.0  
 110.0  111.0  112.0  113.0  114.0  115.0  116.0  117.0  118.0  119.0  
 120.0  121.0  122.0  123.0  124.0  125.0  126.0  127.0  128.0  129.0  
 130.0  131.0  132.0  133.0  134.0  135.0  136.0  137.0  138.0  139.0  
 140.0  141.0  142.0  143.0  144.0  145.0  146.0  147.0  148.0  149.0  
 150.0  151.0  152.0  153.0  154.0  155.0  156.0  157.0  158.0  159.0  
 160.0  161.0  162.0  163.0  164.0  165.0  166.0  167.0  168.0  169.0  
 170.0  171.0  172.0  173.0  174.0  175.0  176.0  177.0  178.0  179.0  
 180.0  
0.0    15.0   30.0   45.0   60.0   75.0   90.0   105.0  120.0  135.0  
 150.0  165.0  180.0  195.0  210.0  225.0  240.0  255.0  270.0  285.0  
 300.0  315.0  330.0  345.0  360.0  
422379.09 422400.16 417977.63 408294.55 369087.47 325269.07 286254.08 234409.53 189108.24 142389.79 
 113045.82 83904.83 54763.83 47154.57 41635.11 37509.00 34168.24 26273.93 22240.83 17354.40 
 11578.12 7517.82  3477.78  1604.96  1071.71  552.91   34.10    21.65    18.02    16.75    
 15.91    14.49    13.53    12.57    11.64    10.45    9.56     8.75     8.29     8.17     
 8.02     7.85     7.67     7.46     6.96     6.61     6.36     5.98     5.55     5.37     
 5.05     4.80     4.61     4.52     4.39     4.28     4.13     4.06     4.02     4.00     
 3.98     3.96     3.93     3.92     3.91     3.90     3.89     3.89     3.87     3.86     
 3.84     3.81     3.79     3.76     3.73     3.70     3.67     3.64     3.62     3.60     
 3.59     3.59     3.59     3.59     3.61     3.62     3.68     3.71     3.79     3.87     
 3.97     4.09     4.21     4.36     4.51     4.68     4.84     5.04     5.23     5.44     
 5.64     5.85     6.08     6.33     6.60     6.87     7.14     7.43     7.72     8.02     
 8.34     8.67     9.02     9.38     9.75     10.15    10.56    10.99    11.43    11.91    
 12.40    12.89    13.41    13.96    14.53    15.13    15.78    16.48    17.22    18.02    
 18.88    19.84    20.89    22.10    23.54    25.19    27.23    29.64    32.41    35.57    
 39.05    42.94    47.39    52.14    57.35    63.18    69.61    76.82    85.17    95.26    
 106.83   119.91   134.10   150.41   168.60   187.35   206.52   226.11   247.06   268.02   
 286.68   304.53   321.81   336.34   348.35   357.09   362.61   364.79   363.52   359.24   
 352.70   344.53   334.62   323.87   312.00   298.95   284.78   269.55   253.16   235.16   
 216.38   
422379.09 423300.48 419618.98 411290.27 388911.87 339959.45 302461.51 256726.17 210976.40 163371.29 
 124231.57 93209.09 61459.71 50162.28 43375.00 38240.34 34379.69 29490.28 24600.88 19717.34 
 15614.62 10383.00 6126.77  4236.79  2346.82  472.12   308.79   146.90   136.28   95.90    
 74.90    87.51    59.21    34.54    25.10    20.69    18.28    16.71    15.69    14.74    
 14.23    13.43    12.50    11.64    10.83    9.99     9.06     7.99     7.29     6.76     
 6.29     5.99     5.78     5.53     5.26     5.05     5.12     5.32     5.36     5.34     
 5.22     5.07     4.92     4.77     4.63     4.50     4.38     4.22     4.09     3.97     
 3.85     3.74     3.69     3.64     3.57     3.50     3.43     3.37     3.32     3.24     
 3.21     3.22     3.22     3.25     3.29     3.33     3.38     3.43     3.51     3.61     
 3.72     3.85     3.98     4.14     4.30     4.48     4.65     4.85     5.05     5.27     
 5.49     5.71     5.96     6.22     6.50     6.77     7.05     7.35     7.66     7.97     
 8.28     8.61     8.96     9.33     9.70     10.08    10.50    10.93    11.35    11.82    
 12.31    12.83    13.38    13.91    14.48    15.08    15.72    16.40    17.12    17.89    
 18.74    19.71    20.80    22.07    23.62    25.44    27.69    30.30    33.20    36.56    
 40.41    44.57    49.09    54.03    59.51    65.64    72.50    80.22    88.99    99.30    
 110.80   124.78   138.78   155.03   172.32   190.52   209.55   228.45   248.05   266.98   
 285.44   302.80   319.01   333.25   343.92   351.90   356.55   357.83   356.15   351.64   
 344.99   336.47   326.99   316.29   304.80   292.08   278.20   263.43   247.76   231.02   
 216.38   
422379.09 423073.10 419748.01 412610.64 401544.07 366556.89 323590.80 286625.85 243239.80 199933.21 
 159442.54 124257.39 96777.92 69383.87 52134.95 44439.82 38762.36 34046.50 30229.07 26889.79 
 20135.43 16595.38 12586.50 9606.27  6637.67  4058.30  2245.64  1026.87  703.02   390.54   
 233.22   192.65   159.30   132.45   105.66   78.88    62.96    48.54    41.47    35.51    
 32.02    28.30    25.89    23.60    21.61    19.19    17.33    16.02    14.59    12.87    
 10.65    9.93     9.28     8.58     7.83     7.35     7.25     7.23     7.14     6.90     
 6.57     6.27     6.05     5.86     5.69     5.54     5.39     5.24     5.11     4.95     
 4.77     4.59     4.42     4.24     4.07     3.88     3.72     3.57     3.44     3.31     
 3.21     3.14     3.12     3.12     3.18     3.26     3.34     3.44     3.54     3.66     
 3.80     3.94     4.08     4.25     4.43     4.62     4.83     5.04     5.28     5.51     
 5.75     6.01     6.27     6.55     6.83     7.13     7.43     7.74     8.06     8.40     
 8.75     9.11     9.49     9.86     10.26    10.68    11.10    11.53    11.97    12.45    
 12.93    13.43    13.94    14.51    15.10    15.71    16.42    17.19    18.05    19.04    
 20.14    21.50    23.05    24.91    26.98    29.35    32.04    35.14    38.52    42.25    
 46.27    50.73    55.73    61.32    67.49    74.47    82.28    91.07    100.94   112.10   
 124.26   137.51   151.87   167.21   183.46   200.07   217.45   235.78   254.12   271.23   
 287.55   302.61   315.89   326.93   335.32   340.99   344.22   344.64   342.44   338.18   
 332.21   325.09   316.75   307.21   296.25   284.24   271.00   256.85   242.42   227.08   
 216.38   
422379.09 423273.85 420758.72 415340.62 405811.96 390659.11 361461.42 323938.43 292931.30 255373.01 
 217798.53 178304.65 152037.63 118975.48 98784.58 77962.40 60294.02 45288.53 38008.74 32707.13 
 28078.49 24787.69 21502.25 18867.23 15731.19 11908.64 9081.52  7251.57  5328.06  3818.62  
 2783.78  1751.35  1028.59  617.38   429.44   335.46   241.48   148.10   120.60   99.60    
 80.84    68.27    59.19    50.21    43.77    38.00    33.88    30.14    26.86    24.43    
 22.57    20.90    19.58    17.98    15.65    11.74    10.22    9.95     9.63     9.33     
 8.92     8.56     8.22     7.93     7.66     7.38     7.12     6.88     6.65     6.40     
 6.16     5.91     5.66     5.41     5.12     4.82     4.49     4.15     3.84     3.57     
 3.33     3.12     3.00     3.01     3.07     3.15     3.25     3.36     3.47     3.60     
 3.75     3.90     4.06     4.23     4.44     4.65     4.87     5.10     5.34     5.58     
 5.84     6.12     6.41     6.71     7.03     7.36     7.68     8.01     8.35     8.70     
 9.05     9.40     9.77     10.14    10.55    10.97    11.41    11.87    12.35    12.84    
 13.37    13.92    14.54    15.20    15.92    16.74    17.70    18.75    19.94    21.27    
 22.79    24.44    26.30    28.39    30.65    33.22    36.11    39.34    42.84    46.84    
 51.43    56.57    62.27    68.70    75.92    84.07    92.94    102.77   113.36   125.79   
 138.23   151.85   165.40   180.25   195.50   210.92   226.68   241.92   256.93   271.03   
 284.20   295.88   306.11   314.50   320.92   325.27   327.58   328.14   326.81   323.86   
 319.43   313.41   306.09   297.40   287.54   276.54   264.49   252.12   239.07   225.70   
 216.38   
422379.09 422282.45 419738.62 414426.68 403918.61 388112.54 374867.38 359394.34 338418.07 304993.39 
 269198.17 240484.20 211176.23 183926.41 157414.33 130512.47 110246.44 90047.96 69849.48 55619.25 
 43214.69 35539.12 29283.52 23785.65 21138.07 18537.60 16600.48 14711.20 13003.44 11458.04 
 9914.65  8371.25  6886.95  5353.48  4260.70  3298.05  2541.23  2013.65  1598.71  1254.08  
 964.14   674.89   467.18   331.70   234.73   179.99   145.05   123.03   101.16   79.29    
 67.58    59.12    52.87    46.97    41.49    37.78    34.54    31.58    29.19    27.12    
 24.72    22.52    19.54    14.34    12.66    11.79    11.26    10.66    10.07    9.55     
 9.10     8.64     8.27     7.88     7.44     7.03     6.60     6.11     5.57     5.00     
 4.45     3.95     3.54     3.38     3.37     3.45     3.55     3.66     3.79     3.92     
 4.06     4.22     4.39     4.58     4.78     5.00     5.23     5.48     5.72     5.99     
 6.28     6.56     6.86     7.17     7.51     7.84     8.19     8.55     8.92     9.27     
 9.64     10.05    10.47    10.88    11.33    11.80    12.29    12.79    13.30    13.86    
 14.51    15.21    15.97    16.80    17.71    18.69    19.79    21.03    22.36    23.83    
 25.42    27.25    29.26    31.48    34.00    36.87    40.20    43.98    48.30    53.19    
 58.63    65.07    72.20    79.98    88.44    97.60    107.69   118.48   129.89   142.17   
 154.87   167.81   180.77   194.36   207.87   221.02   234.85   248.69   259.84   270.58   
 280.48   289.21   296.69   302.93   307.94   311.29   313.10   313.47   312.48   309.82   
 305.85   300.52   294.18   286.81   278.46   269.53   259.99   249.53   238.55   226.99   
 216.38   
422379.09 421404.02 419096.28 414631.07 404862.56 389792.97 377911.63 362557.54 345928.09 328165.05 
 308855.72 290505.67 267685.75 243846.21 219974.07 192483.14 166125.33 138511.73 112623.47 91593.76 
 75588.93 63161.26 53373.88 45137.58 39587.85 35006.85 31090.40 27216.33 24464.22 21715.73 
 19331.59 16924.55 14540.68 12640.09 10903.98 9390.82  8095.39  7020.82  6155.31  5444.50  
 4853.05  4352.31  3950.69  3591.23  3254.33  2912.13  2611.61  2311.16  2019.29  1733.52  
 1445.64  1165.14  906.81   697.54   540.50   433.71   353.38   299.65   245.92   192.36   
 158.05   129.63   107.51   90.81    77.86    66.38    56.51    47.71    41.49    36.36    
 31.80    28.21    25.24    21.79    16.01    14.47    13.39    12.03    10.87    9.76     
 8.62     7.18     5.46     3.90     3.07     3.09     3.16     3.24     3.33     3.43     
 3.54     3.66     3.80     3.96     4.15     4.35     4.56     4.79     5.03     5.28     
 5.53     5.79     6.07     6.38     6.69     7.03     7.38     7.75     8.14     8.54     
 8.96     9.39     9.84     10.31    10.80    11.30    11.83    12.36    12.92    13.53    
 14.21    14.98    15.86    16.85    17.87    19.06    20.44    21.94    23.54    25.25    
 27.17    29.25    31.53    34.07    36.87    40.08    43.89    48.10    52.80    57.92    
 63.66    70.41    77.95    86.26    95.27    105.21   115.58   127.36   139.14   151.27   
 163.54   176.02   188.11   200.68   212.68   224.38   235.89   246.45   257.04   266.67   
 275.51   283.47   290.51   296.59   301.84   305.80   308.55   309.77   309.80   308.43   
 305.93   302.20   297.63   291.58   284.78   276.98   268.60   259.38   249.52   239.44   
 216.38   
422379.09 419796.25 416496.14 412085.33 403106.61 388718.94 376850.51 363045.17 347658.19 330343.65 
 312675.48 294889.55 273503.35 249032.02 224560.67 200063.13 173408.03 148085.45 124925.53 105838.40 
 90141.14 76874.73 66384.23 57629.17 50714.02 44849.32 40135.67 36149.71 32819.84 29734.09 
 26788.00 24104.55 21424.03 19019.67 16738.17 14832.29 13156.86 11785.81 10662.11 9728.50  
 8970.96  8346.99  7832.07  7348.93  6903.87  6492.07  6144.40  5818.36  5509.40  5201.89  
 4883.74  4570.08  4235.60  3916.59  3629.23  3376.11  3131.61  2912.30  2709.22  2506.14  
 2303.35  2125.26  1957.03  1802.82  1650.78  1511.08  1378.05  1243.56  1117.84  1003.30  
 892.02   792.27   700.27   613.75   532.56   457.37   389.79   329.18   280.80   232.43   
 184.17   146.15   114.22   87.09    56.12    23.62    5.19     3.39     2.88     2.63     
 2.37     2.30     2.25     2.17     2.10     2.04     1.79     1.66     1.65     1.64     
 1.61     1.61     1.64     1.71     1.79     1.85     1.89     1.93     1.99     2.04     
 2.05     2.13     2.23     2.32     2.46     2.62     2.81     2.98     3.07     3.16     
 3.26     3.37     3.50     3.67     3.86     4.09     4.36     4.65     4.97     5.34     
 5.75     6.26     6.79     7.33     7.93     8.63     9.41     10.30    11.36    12.50    
 13.77    15.24    16.94    18.78    20.79    23.02    25.44    27.95    30.61    33.43    
 36.32    39.26    42.37    45.62    48.97    52.53    56.25    60.10    64.23    68.56    
 72.99    77.54    82.42    87.53    92.83    98.30    104.26   110.77   117.76   125.83   
 133.91   142.73   152.41   162.18   172.73   183.79   195.04   206.27   217.50   228.74   
 216.38   
422379.09 419293.53 415490.74 410304.47 401288.17 387279.56 374453.55 360421.41 344648.24 325753.06 
 305374.63 284235.96 261753.23 238708.35 214714.33 191145.93 168783.87 146566.28 125568.09 108853.43 
 92179.05 75504.66 65457.31 57629.58 51506.91 46589.76 42559.34 39021.42 35705.16 32473.52 
 29623.60 26698.73 23843.86 21272.58 18923.89 16930.93 15149.33 13546.42 12302.38 11506.19 
 10714.46 9922.74  9412.16  8936.45  8543.89  8196.29  7879.76  7573.05  7293.94  7003.87  
 6741.96  6494.66  6249.90  5983.65  5716.02  5434.03  5155.10  4877.79  4604.49  4344.37  
 4105.89  3886.13  3681.03  3490.01  3305.09  3126.20  2948.96  2778.90  2616.08  2454.12  
 2305.72  2166.60  2027.93  1894.46  1768.60  1651.57  1545.37  1441.67  1340.77  1245.08  
 1162.64  1080.31  997.98   923.79   854.09   787.38   725.76   669.94   618.97   573.71   
 536.04   496.73   459.37   424.31   392.22   361.79   332.58   305.94   282.20   260.47   
 239.39   220.42   201.98   184.84   168.14   152.21   137.23   123.85   110.50   97.14    
 85.64    75.65    67.07    58.21    49.91    42.27    35.36    29.66    25.22    14.67    
 5.26     3.87     3.75     3.76     3.92     4.08     4.27     4.52     4.78     5.13     
 5.87     6.61     7.38     8.15     9.43     10.81    10.64    10.53    11.03    12.06    
 12.97    14.12    15.49    17.53    19.60    21.26    23.15    25.36    27.64    30.14    
 32.79    35.55    37.57    39.85    42.94    45.96    49.14    52.40    55.64    59.05    
 62.58    66.27    70.09    74.29    78.66    83.64    89.10    94.95    101.79   109.24   
 116.10   125.23   135.62   146.95   158.75   171.74   185.00   198.59   211.97   225.59   
 216.38   
422379.09 419069.71 414367.86 407988.63 399057.08 386588.92 370311.93 353497.43 334462.20 311609.36 
 285505.93 260218.27 234930.63 209686.14 188198.94 168189.20 147849.62 127779.61 108317.41 92317.47 
 79472.29 69572.10 61685.57 55687.68 50919.25 46678.51 42972.21 39389.90 36330.96 33149.25 
 30168.56 27296.29 24681.71 22070.64 19782.30 17662.02 15780.57 14170.31 12812.47 11764.16 
 10954.20 10373.05 9927.03  9539.29  9207.86  8896.93  8606.63  8346.86  8114.59  7890.47  
 7682.04  7458.09  7230.83  6993.54  6760.69  6518.60  6268.84  6007.91  5744.52  5474.44  
 5209.83  4937.40  4675.15  4434.25  4216.11  3993.01  3771.56  3555.00  3348.83  3147.91  
 2953.92  2775.30  2596.69  2418.36  2263.43  2109.54  1962.05  1820.16  1693.27  1574.88  
 1463.01  1360.08  1267.18  1183.71  1109.23  1038.46  974.14   913.47   858.17   812.25   
 773.97   730.07   689.12   651.32   616.03   583.18   553.69   526.11   501.31   478.30   
 456.98   437.26   419.01   402.27   386.40   371.48   357.29   343.63   331.66   320.73   
 309.53   298.54   287.76   277.11   266.56   256.29   245.44   234.59   223.75   213.49   
 201.66   190.42   179.24   168.38   157.09   145.81   133.98   123.06   111.31   98.22    
 84.31    67.86    44.48    28.19    19.88    18.11    17.08    9.43     7.03     7.69     
 8.53     9.51     10.66    11.91    13.32    14.99    16.84    18.88    21.43    24.49    
 27.56    30.75    35.28    49.94    43.58    40.29    43.41    46.56    49.86    53.18    
 56.56    59.96    63.43    67.23    71.11    75.41    80.04    85.03    90.97    96.88    
 104.31   112.95   123.78   134.63   146.85   159.84   174.05   188.77   203.88   219.43   
 216.38   
422379.09 418108.73 411408.35 402400.25 390493.44 375369.35 355219.65 330491.49 300244.18 267463.16 
 235093.09 206945.03 182618.79 161203.48 142296.98 125462.02 112937.24 100444.14 87951.04 78730.15 
 70784.21 64468.23 58812.71 53741.96 48904.68 44431.94 39973.89 35685.39 31520.24 27387.78 
 23594.11 20346.95 17663.97 15698.94 14394.14 13532.32 12863.31 12262.83 11773.03 11284.06 
 10795.08 10383.10 9991.41  9623.45  9304.82  9022.56  8748.20  8506.66  8276.98  8027.41  
 7773.97  7527.40  7293.66  7072.81  6854.08  6624.99  6397.40  6169.42  5951.03  5710.74  
 5469.48  5230.46  4990.81  4759.93  4529.13  4288.35  4055.07  3824.25  3589.86  3365.43  
 3141.08  2931.91  2737.39  2546.43  2366.28  2200.20  2039.04  1873.14  1733.14  1602.56  
 1488.04  1381.64  1280.50  1184.06  1108.57  1033.30  966.00   903.60   846.74   807.13   
 770.29   728.39   690.12   656.00   626.43   599.21   575.54   554.44   535.73   518.55   
 502.83   488.55   475.02   462.61   451.15   439.53   427.94   417.35   407.15   397.05   
 387.12   377.36   368.25   359.31   350.16   341.53   332.99   325.32   317.48   309.46   
 302.21   294.53   286.86   279.83   271.99   263.66   255.12   246.15   237.41   228.39   
 219.16   207.99   196.97   185.53   174.51   163.15   152.00   140.39   128.38   115.42   
 102.47   87.47    58.17    22.07    15.18    14.44    14.16    14.36    16.43    18.80    
 21.35    24.06    27.02    30.19    33.47    36.83    40.60    44.74    48.56    53.29    
 72.00    60.12    62.54    67.02    71.68    76.62    81.56    86.77    92.24    98.09    
 104.39   111.34   119.55   128.71   139.38   152.00   165.65   180.62   196.13   212.64   
 216.38   
422379.09 417882.29 409610.38 397908.89 382057.31 360991.96 334515.94 302607.15 266659.18 230711.26 
 194853.87 167435.55 144699.09 127266.65 114185.58 103641.75 94731.91 87144.87 80490.25 74620.36 
 68723.65 62914.74 56855.96 50597.80 44087.41 37521.38 31600.58 28060.26 24519.95 21002.24 
 19263.24 17872.61 16766.51 15871.09 15066.59 14267.61 13535.24 12913.39 12342.33 11789.90 
 11264.45 10795.69 10378.54 9984.92  9629.17  9273.13  8963.85  8665.90  8384.40  8112.60  
 7853.35  7610.57  7380.66  7161.35  6948.29  6740.93  6545.31  6329.17  6095.82  5855.32  
 5616.83  5379.44  5134.34  4877.74  4624.17  4365.53  4108.26  3867.49  3641.06  3413.50  
 3191.69  2986.06  2800.61  2604.76  2408.97  2218.46  2053.91  1899.51  1758.36  1617.07  
 1490.08  1367.76  1257.04  1159.22  1078.11  1001.16  934.17   868.71   816.00   778.18   
 745.32   710.13   673.42   639.77   610.77   586.66   566.70   549.32   533.15   517.99   
 505.30   493.69   483.67   473.75   464.68   455.84   447.74   439.85   432.29   424.13   
 417.27   409.55   402.56   394.76   387.46   379.31   371.15   362.92   355.32   347.30   
 339.47   331.89   324.64   317.18   309.50   301.87   294.36   286.60   278.88   271.46   
 263.78   256.17   248.65   239.78   230.92   222.97   214.25   204.68   194.42   184.12   
 172.88   161.69   150.07   135.69   118.65   107.77   100.41   90.44    44.30    26.03    
 25.72    24.91    23.51    25.62    29.14    32.79    36.66    40.70    45.21    50.04    
 55.22    60.92    66.17    79.49    86.95    79.73    85.71    91.93    98.06    104.12   
 110.14   116.19   122.54   129.24   137.27   146.85   159.00   172.80   188.38   205.65   
 216.38   
422379.09 416561.28 406033.98 390524.23 370029.88 342094.15 305895.61 264561.67 224996.05 190227.79 
 162102.53 140201.93 124166.39 114624.29 105134.53 95644.78 89379.62 84044.32 78974.48 73386.18 
 66620.54 59034.69 51011.13 42936.42 35837.32 30497.12 27084.24 24874.44 23054.04 21501.78 
 20145.46 18933.08 17804.93 16811.79 15894.89 15085.30 14312.16 13563.03 12843.72 12150.29 
 11632.14 11115.70 10599.26 10305.66 9953.23  9584.24  9253.56  8909.99  8611.18  8313.54  
 8037.89  7758.06  7471.39  7215.46  6974.62  6751.54  6551.83  6365.14  6173.36  5959.08  
 5716.18  5471.72  5200.19  4918.39  4640.90  4387.46  4144.25  3907.94  3674.48  3451.47  
 3236.55  3029.32  2800.31  2587.32  2396.08  2221.46  2059.00  1899.85  1740.73  1603.64  
 1469.53  1351.08  1240.36  1159.46  1078.78  998.10   927.52   859.06   808.50   772.03   
 738.57   701.30   660.24   625.71   594.59   569.61   549.61   533.31   518.51   505.28   
 492.84   482.95   475.28   467.88   461.14   454.92   448.16   442.19   436.75   430.88   
 424.89   419.45   413.36   407.19   401.23   394.89   388.71   382.08   374.65   367.13   
 359.57   352.22   345.17   338.34   331.34   324.82   318.25   311.43   303.93   296.97   
 289.67   282.10   274.49   266.41   258.76   247.52   234.02   225.42   217.80   209.97   
 201.05   191.70   183.30   175.30   167.00   158.48   146.29   135.54   127.52   119.52   
 95.94    28.50    26.53    27.42    29.29    32.30    36.90    41.96    47.12    52.98    
 59.42    66.48    73.52    80.48    88.06    117.92   95.38    101.57   107.94   113.87   
 119.47   124.82   130.00   135.20   140.99   148.32   158.29   170.71   184.87   201.08   
 216.38   
422379.09 416815.29 406255.80 390219.20 368000.80 336813.34 297792.66 256621.66 215525.83 181814.15 
 155761.92 136637.86 122527.84 111632.11 103168.65 96359.95 90804.96 85616.12 80397.86 74405.08 
 66933.70 58172.25 49467.70 41290.77 34809.21 30707.16 28122.27 26159.48 24472.52 22788.23 
 21315.10 19977.02 18810.38 17774.84 16838.98 15876.02 14956.58 14067.91 13246.81 12496.53 
 11853.32 11310.76 10940.64 10552.64 10101.21 9740.34  9395.19  9061.03  8744.37  8454.36  
 8187.04  7881.18  7591.83  7343.60  7109.68  6891.70  6705.21  6509.21  6321.15  6127.40  
 5926.08  5692.40  5426.07  5136.18  4877.22  4608.50  4353.42  4100.70  3846.19  3609.22  
 3367.82  3123.43  2864.17  2662.20  2460.47  2277.68  2096.10  1924.68  1765.01  1625.43  
 1483.22  1359.56  1244.38  1154.35  1070.27  991.36   920.11   851.35   797.20   759.24   
 725.31   689.54   646.50   608.08   575.22   549.55   528.75   511.54   497.15   484.89   
 474.12   465.00   457.69   451.35   445.69   440.52   435.52   431.12   426.55   421.73   
 416.98   412.19   407.40   402.31   397.31   392.91   387.90   382.77   377.67   372.35   
 366.32   360.62   355.27   349.82   343.72   337.32   330.88   324.48   317.95   311.02   
 304.06   296.80   289.18   281.34   273.16   265.17   254.97   242.86   230.80   223.37   
 215.94   208.25   200.54   192.63   184.48   175.93   167.19   158.91   150.37   142.37   
 132.81   101.20   28.51    29.66    31.02    33.51    38.37    44.53    50.77    57.45    
 65.29    73.41    81.54    90.20    98.29    120.06   118.93   113.54   118.87   124.12   
 129.00   133.74   138.01   141.94   145.94   150.82   158.03   167.96   180.80   196.34   
 216.38   
422379.09 415981.32 404496.62 388047.48 365919.95 335886.30 299174.68 259702.41 223177.79 191598.46 
 166410.63 146952.78 131909.35 119959.05 111158.09 102381.75 95928.16 90163.15 84642.45 78458.51 
 71127.10 62619.97 53662.38 44835.78 37600.85 32553.05 29451.12 27330.34 25448.57 23739.41 
 22198.27 20745.88 19472.65 18284.27 17199.70 16250.86 15338.84 14478.69 13664.82 12888.66 
 12200.01 11714.43 11230.79 10747.15 10332.64 9925.97  9582.09  9209.78  8903.19  8608.39  
 8338.16  8033.25  7728.40  7467.72  7215.90  6974.21  6755.10  6557.10  6350.43  6135.23  
 5891.01  5629.97  5364.08  5068.04  4774.51  4514.75  4270.17  4026.13  3779.27  3544.46  
 3327.84  3114.18  2886.27  2657.64  2464.33  2283.02  2117.47  1953.28  1791.11  1648.25  
 1510.38  1384.61  1266.99  1182.13  1097.52  1012.90  940.94   871.13   814.37   775.93   
 742.02   707.24   666.57   630.09   599.15   572.87   551.74   534.16   519.34   505.67   
 493.52   483.38   475.38   468.08   461.18   454.76   448.62   442.81   437.14   431.73   
 426.01   420.16   414.36   408.64   402.49   396.73   391.01   385.05   377.94   370.53   
 362.98   355.77   348.27   340.98   333.73   326.62   319.68   312.30   304.99   297.62   
 290.07   281.69   273.10   264.85   256.77   244.97   233.10   225.43   217.71   209.94   
 201.41   192.82   184.35   175.53   166.37   156.64   142.58   131.91   123.05   114.21   
 82.91    28.78    27.81    29.15    32.15    37.36    44.00    50.99    58.16    65.86    
 74.27    83.45    92.84    101.71   116.13   136.36   120.16   125.90   131.20   135.35   
 138.87   142.54   145.98   148.90   151.84   155.81   161.97   170.46   181.53   195.45   
 216.38   
422379.09 416918.74 407249.91 393609.57 375901.22 352707.51 324806.71 294261.92 264425.92 234589.96 
 204809.94 180261.08 160113.23 143000.66 129040.16 117382.52 107888.70 99551.01 92200.15 85586.20 
 78865.70 71634.91 63772.60 55442.10 47420.51 39745.79 33296.99 28712.17 26325.01 23937.84 
 21559.86 20086.47 18832.10 17722.96 16701.85 15756.68 14885.65 14138.94 13448.98 12804.15 
 12207.41 11670.97 11202.40 10749.41 10325.56 9920.82  9536.97  9188.41  8870.22  8573.38  
 8283.12  8005.86  7741.28  7496.39  7269.07  7055.60  6858.84  6646.29  6423.38  6172.82  
 5926.56  5670.17  5406.85  5133.96  4866.66  4603.24  4319.49  4051.74  3813.79  3582.21  
 3346.05  3130.98  2932.72  2730.72  2528.72  2326.95  2148.12  1984.74  1833.74  1690.88  
 1552.48  1426.89  1305.17  1197.09  1108.78  1030.11  958.21   891.99   829.55   784.50   
 750.23   717.55   680.31   644.76   612.55   585.97   563.58   544.62   527.46   512.43   
 499.03   487.58   477.19   467.57   458.53   450.18   442.13   434.22   426.49   419.42   
 412.21   404.90   397.43   390.30   383.47   376.21   368.29   360.20   352.42   344.33   
 336.26   328.30   320.52   312.95   305.26   297.56   289.82   282.04   274.56   266.73   
 258.86   250.91   241.74   232.58   224.59   215.78   206.76   196.00   185.54   175.56   
 166.02   155.50   145.08   131.07   119.47   108.48   96.76    74.51    27.35    23.43    
 24.42    25.38    27.85    32.92    38.57    44.67    51.23    58.21    65.77    74.02    
 83.00    92.15    102.49   129.33   113.68   119.69   125.46   130.83   135.44   139.62   
 143.54   146.88   149.50   152.44   155.84   160.11   165.77   173.40   183.12   195.28   
 216.38   
422379.09 417990.41 410465.51 400405.18 388252.61 373572.94 355733.11 335356.32 311454.24 284574.40 
 255478.41 226761.17 200118.29 177436.49 158213.40 141926.75 128290.64 117600.74 106939.90 96279.05 
 87410.11 79253.67 71819.55 64610.51 57861.06 51628.94 45588.07 39862.99 34323.34 29111.41 
 24745.39 21381.40 18889.65 17113.76 15845.44 14955.50 14200.02 13533.20 12932.42 12374.20 
 12082.66 11493.33 10901.13 10478.54 10101.05 9756.20  9432.21  9141.88  8879.68  8610.42  
 8336.21  8056.38  7789.39  7546.70  7321.58  7094.19  6851.05  6606.16  6355.21  6093.31  
 5835.36  5574.52  5324.63  5076.46  4830.72  4582.18  4340.48  4101.25  3856.80  3618.36  
 3385.62  3148.89  2936.53  2728.20  2534.82  2351.26  2184.71  2014.70  1849.89  1710.55  
 1582.72  1460.63  1348.27  1246.37  1165.44  1084.73  1004.01  936.57   873.72   821.38   
 783.98   745.28   704.86   667.13   633.81   605.17   580.43   558.33   538.25   519.40   
 502.91   487.97   473.73   460.66   448.22   436.35   424.94   413.86   402.99   393.00   
 382.80   373.20   363.22   353.49   343.99   335.09   326.37   317.59   309.31   301.03   
 292.58   284.56   276.03   267.49   258.60   249.71   241.16   232.88   224.67   215.87   
 206.90   196.79   185.54   174.16   162.99   152.21   141.09   130.48   117.67   104.84   
 91.44    76.54    40.59    21.92    17.32    15.82    15.79    17.77    20.73    24.11    
 27.94    32.20    36.95    42.32    48.13    54.39    61.50    68.96    76.70    93.04    
 93.49    95.62    101.87   108.05   113.53   119.20   124.28   129.23   134.03   137.96   
 141.17   144.51   148.19   152.42   157.31   162.86   169.34   177.10   186.52   197.79   
 216.38   
422379.09 420309.37 416315.77 410764.49 404401.25 396512.58 387152.36 374285.40 356988.91 336204.50 
 313257.41 288749.08 263171.50 237593.90 212047.75 189201.28 169253.80 151299.37 134549.99 118762.04 
 104081.10 90372.17 78455.35 69233.04 62094.55 56392.72 51755.59 47599.39 43862.36 40359.54 
 36885.38 33355.42 29956.88 26963.13 23969.38 20980.79 18447.62 16161.15 14268.55 12768.84 
 11680.97 10973.32 10454.55 10045.24 9705.92  9400.61  9112.76  8839.60  8584.74  8347.62  
 8114.33  7898.00  7688.70  7463.40  7224.20  6985.18  6725.44  6483.83  6208.48  5938.20  
 5653.55  5377.98  5089.85  4824.85  4578.67  4339.10  4103.59  3870.60  3647.36  3432.17  
 3217.92  3015.10  2827.28  2649.88  2472.63  2307.61  2146.34  1992.79  1851.64  1719.91  
 1593.31  1476.10  1365.96  1271.56  1186.67  1108.02  1034.23  967.16   906.41   850.08   
 801.26   761.80   718.23   675.83   636.42   601.86   569.90   539.63   511.78   485.57   
 461.81   439.97   419.57   400.45   382.95   366.84   351.73   336.76   322.51   309.80   
 297.85   286.24   274.77   263.48   252.48   240.99   229.50   218.77   207.89   196.90   
 185.84   174.41   163.56   153.49   143.68   133.88   123.70   113.16   101.96   89.98    
 77.34    62.48    45.44    27.72    20.36    18.17    12.49    8.60     9.15     10.02    
 11.07    12.24    13.57    15.14    16.98    19.21    21.72    24.76    28.55    32.78    
 37.41    43.14    57.06    51.59    55.26    60.14    65.57    71.28    77.18    82.93    
 88.57    94.09    99.56    105.01   110.10   115.36   119.87   124.40   128.72   132.94   
 137.45   142.34   147.57   153.40   159.82   166.88   174.59   183.16   192.61   202.79   
 216.38   
422379.09 422187.91 420831.78 419028.00 416463.44 411991.69 403715.77 391186.02 378894.25 363222.27 
 345767.94 325032.95 303353.91 281149.22 257944.20 234412.51 211300.17 188485.98 166430.46 143586.53 
 121491.24 103371.69 85287.58 73014.79 64329.67 57485.06 52000.89 47598.65 43661.29 39970.92 
 36652.62 33373.62 30246.09 27167.65 24276.66 21482.79 19103.74 16915.17 15075.62 13495.90 
 12244.64 11305.93 10370.17 9711.05  9166.14  8724.67  8359.93  8035.37  7752.31  7480.87  
 7209.45  6943.33  6693.79  6466.57  6189.17  5900.42  5625.28  5351.08  5073.24  4789.33  
 4518.28  4261.77  4024.40  3810.99  3613.13  3425.08  3239.55  3054.44  2876.19  2703.25  
 2540.44  2384.97  2235.23  2085.92  1949.10  1818.05  1696.32  1577.91  1466.78  1362.17  
 1260.84  1174.42  1088.11  1001.80  926.57   853.36   784.12   720.99   664.00   612.83   
 562.24   523.12   485.70   449.42   415.16   382.64   351.53   322.73   296.34   271.02   
 247.65   226.70   207.15   188.92   171.18   154.61   139.18   125.84   112.51   99.18    
 89.15    80.40    72.61    64.82    56.11    47.04    38.78    32.21    26.12    13.90    
 6.14     5.43     5.42     5.50     5.67     5.88     6.16     6.46     6.78     7.37     
 8.08     8.88     9.77     10.47    11.54    12.85    13.28    13.52    14.29    15.27    
 16.40    17.74    19.22    21.17    23.41    26.23    28.21    31.65    35.04    38.45    
 41.90    44.74    49.03    52.36    56.92    61.56    66.37    71.29    76.19    81.19    
 86.10    91.07    95.97    100.86   105.76   110.75   116.37   121.97   127.86   133.48   
 139.44   145.82   152.70   160.17   168.17   176.87   186.19   196.17   206.44   216.97   
 216.38   
422379.09 424170.43 425051.68 425374.39 424240.63 418049.93 406784.33 396628.89 383513.61 368796.28 
 352807.30 334962.96 316705.79 295740.52 272746.81 247810.74 220419.51 192068.63 163744.97 137417.63 
 115107.36 99112.05 83190.26 71880.99 62624.25 55355.46 49134.10 44042.25 39624.20 35660.30 
 32241.59 29064.19 26120.44 22979.84 20240.08 17724.13 15527.79 13487.65 11861.00 10649.67 
 9443.63  8633.77  7988.99  7463.13  6982.30  6565.85  6266.80  6021.85  5759.21  5462.62  
 5164.50  4861.99  4536.04  4205.05  3890.65  3626.82  3370.33  3140.10  2916.52  2717.23  
 2513.04  2320.04  2141.29  1978.57  1820.81  1678.58  1539.30  1407.59  1280.34  1166.97  
 1053.75  940.54   837.12   739.75   649.80   570.39   494.70   424.26   359.69   303.18   
 252.52   205.95   164.68   130.02   100.11   70.27    40.05    15.74    5.80     5.34     
 5.20     5.06     5.04     5.00     4.96     4.92     4.87     4.83     4.73     4.85     
 4.93     4.97     5.03     5.16     5.43     5.71     5.99     6.19     6.46     6.80     
 7.11     7.38     7.78     8.16     8.48     8.95     9.45     9.95     10.44    10.84    
 11.26    11.70    12.19    12.73    13.35    14.03    14.82    15.74    16.72    17.83    
 19.09    20.52    22.13    24.05    26.11    28.39    31.01    34.07    37.59    41.58    
 46.09    51.22    57.20    64.20    71.64    79.84    88.65    98.20    108.19   118.63   
 129.49   140.22   150.95   161.78   172.31   182.57   192.71   202.45   211.91   220.93   
 229.41   237.99   246.56   253.75   260.41   266.38   271.75   277.10   280.62   283.27   
 284.84   285.28   284.90   283.32   280.53   276.61   271.48   265.44   258.16   249.58   
 216.38   
422379.09 424392.93 425299.13 425488.99 424694.97 419521.78 408529.20 397175.87 385074.90 368415.16 
 352049.60 333052.98 309962.92 282061.82 252814.74 223567.68 194357.88 169068.52 142808.68 117686.58 
 97039.42 79836.31 66847.45 56041.88 47245.79 41260.95 36738.60 32745.82 29508.85 26457.71 
 23406.56 20360.06 17920.96 15316.62 13135.42 11073.72 9423.14  7857.89  6652.87  5643.49  
 4857.97  4250.75  3747.35  3369.96  3040.06  2715.17  2390.48  2088.85  1809.79  1518.36  
 1238.48  987.30   797.28   638.01   530.55   447.78   380.82   320.95   278.04   235.13   
 192.35   163.38   138.34   116.28   97.66    82.33    68.23    56.93    48.37    41.66    
 35.80    30.81    26.99    23.53    20.00    13.37    12.10    11.01    9.93     8.99     
 7.96     6.98     6.05     5.01     3.92     3.12     3.00     3.08     3.17     3.26     
 3.36     3.47     3.59     3.73     3.88     4.05     4.22     4.42     4.63     4.86     
 5.07     5.28     5.53     5.79     6.07     6.35     6.64     6.96     7.31     7.66     
 8.02     8.39     8.78     9.18     9.58     10.00    10.46    10.94    11.43    11.95    
 12.49    13.08    13.73    14.44    15.23    16.18    17.23    18.35    19.59    20.95    
 22.47    24.12    25.84    27.64    29.71    32.15    34.98    38.00    41.39    45.28    
 49.71    54.36    59.98    66.41    73.58    81.71    90.40    99.68    109.49   120.48   
 131.47   142.59   153.54   164.79   176.01   186.91   197.94   208.19   218.70   228.65   
 238.25   247.20   255.68   263.72   271.28   277.97   283.63   288.94   293.13   296.24   
 297.99   297.94   297.07   294.98   291.42   286.86   280.49   272.92   263.61   252.73   
 216.38   
422379.09 423906.74 424040.69 422785.39 420140.81 414511.53 400450.67 369546.10 341570.19 316691.38 
 288554.02 261555.27 231273.31 197303.74 171343.70 147433.30 120787.43 102076.64 83467.28 68438.01 
 55537.20 41591.34 34293.76 29684.32 26214.25 22732.82 20279.32 18011.55 16072.23 14160.58 
 12288.41 9919.94  7545.49  5568.29  4385.52  3166.35  2513.81  1840.74  1404.53  1109.78  
 816.83   523.87   383.23   284.97   216.94   173.17   141.44   121.50   101.69   81.87    
 70.05    60.98    53.68    48.27    43.76    39.72    36.31    33.27    30.77    28.92    
 27.07    25.34    23.59    21.28    15.45    12.25    11.34    10.62    10.01    9.42     
 8.90     8.39     7.98     7.56     7.13     6.74     6.35     5.94     5.54     5.14     
 4.74     4.34     3.95     3.65     3.49     3.48     3.53     3.64     3.75     3.87     
 4.01     4.15     4.29     4.46     4.65     4.85     5.07     5.29     5.52     5.76     
 6.01     6.27     6.53     6.82     7.12     7.42     7.73     8.06     8.39     8.73     
 9.07     9.42     9.78     10.15    10.54    10.95    11.38    11.81    12.26    12.74    
 13.24    13.77    14.39    15.06    15.77    16.55    17.44    18.40    19.44    20.60    
 21.84    23.26    24.79    26.54    28.47    30.62    33.09    35.99    39.28    43.00    
 47.24    52.05    57.62    64.06    71.12    79.13    87.98    97.35    107.37   118.40   
 130.00   141.89   154.01   166.27   179.28   192.34   204.85   216.44   228.40   240.51   
 252.62   262.64   272.01   280.67   288.13   294.94   300.79   305.31   308.74   310.96   
 311.88   310.91   308.50   305.06   299.71   293.58   285.08   275.18   263.56   250.08   
 216.38   
422379.09 423752.21 422933.35 419411.48 413187.75 387547.46 354282.87 326711.64 297490.69 263432.15 
 229373.56 195293.75 158708.33 130561.98 105126.38 78579.03 63881.44 54993.97 47812.87 41678.58 
 36006.15 31537.28 26694.38 21851.48 17015.28 12965.09 10512.47 7194.09  5647.95  4201.99  
 2756.04  1316.60  734.48   524.10   345.72   262.63   179.85   132.71   107.83   91.20    
 76.45    64.04    53.83    47.99    42.94    38.48    33.69    30.33    27.64    25.56    
 23.87    22.22    21.03    20.11    19.18    18.10    15.57    10.97    9.21     8.67     
 8.38     8.11     7.82     7.53     7.24     6.95     6.72     6.53     6.34     6.17     
 6.00     5.81     5.61     5.40     5.16     4.91     4.70     4.46     4.24     4.03     
 3.82     3.64     3.48     3.39     3.40     3.45     3.53     3.62     3.74     3.86     
 3.99     4.13     4.27     4.44     4.62     4.82     5.02     5.24     5.46     5.69     
 5.92     6.17     6.43     6.70     7.00     7.29     7.58     7.88     8.19     8.51     
 8.82     9.15     9.48     9.81     10.16    10.54    10.95    11.37    11.78    12.24    
 12.72    13.24    13.80    14.39    15.01    15.71    16.51    17.42    18.41    19.51    
 20.72    22.04    23.59    25.23    27.03    29.05    31.33    33.88    36.67    39.87    
 43.61    47.78    52.54    57.99    64.24    71.42    79.37    88.25    98.09    108.97   
 121.57   134.18   147.46   161.95   176.91   192.18   207.87   222.84   238.05   252.22   
 265.70   278.05   289.19   299.32   307.76   314.67   320.08   324.01   326.64   327.59   
 327.05   324.87   321.21   315.73   308.78   299.92   289.71   277.76   263.78   248.36   
 216.38   
422379.09 422900.06 420190.43 413353.44 387735.91 347937.24 316764.72 279771.45 238185.82 202755.04 
 163663.57 129640.42 107010.31 84506.82 62003.34 53755.42 46945.29 41346.33 36539.82 30981.33 
 23410.71 17705.49 11991.00 8701.88  5440.01  3009.76  1507.44  956.16   414.52   281.43   
 206.95   156.18   128.92   101.93   74.94    71.01    54.77    49.65    41.38    38.80    
 31.38    26.51    24.73    22.80    21.46    19.67    18.58    17.27    16.30    15.66    
 14.65    12.14    9.31     8.21     7.65     7.16     6.73     6.64     6.71     6.77     
 6.70     6.50     6.33     6.11     5.95     5.78     5.62     5.46     5.28     5.11     
 4.94     4.79     4.64     4.51     4.37     4.22     4.09     3.96     3.85     3.75     
 3.65     3.57     3.53     3.51     3.53     3.59     3.66     3.76     3.85     3.95     
 4.08     4.21     4.35     4.51     4.68     4.86     5.06     5.26     5.46     5.67     
 5.90     6.15     6.39     6.65     6.92     7.20     7.48     7.77     8.08     8.40     
 8.73     9.08     9.45     9.82     10.20    10.60    11.01    11.41    11.83    12.27    
 12.72    13.19    13.68    14.19    14.74    15.34    16.01    16.74    17.55    18.44    
 19.44    20.66    22.05    23.61    25.40    27.42    29.71    32.28    35.08    38.18    
 41.52    45.38    49.79    54.70    60.18    66.41    73.74    82.01    91.36    102.06   
 114.08   126.99   140.91   156.25   172.58   189.25   206.27   224.08   242.34   260.60   
 277.11   292.30   306.07   317.94   327.76   335.04   340.27   343.20   344.26   343.59   
 341.01   336.77   331.06   323.43   314.38   303.64   290.92   277.39   261.93   244.60   
 216.38   
422379.09 423024.02 419791.13 411396.53 378402.53 334372.36 296919.16 253607.57 210244.49 160118.61 
 122623.37 90658.86 64791.44 55734.01 48704.47 43216.72 38801.43 35055.68 27524.55 20012.25 
 15038.02 11064.84 6089.49  3552.56  1033.58  583.40   137.63   172.62   118.62   67.27    
 62.95    39.90    27.68    22.17    19.10    17.05    15.69    14.50    13.65    12.90    
 12.02    11.41    10.87    10.27    9.82     9.52     9.23     9.01     8.30     6.39     
 5.59     5.35     5.61     5.94     5.93     5.82     5.69     5.54     5.31     5.10     
 4.92     4.81     4.62     4.49     4.34     4.23     4.14     4.03     3.94     3.86     
 3.79     3.72     3.66     3.61     3.56     3.50     3.45     3.39     3.35     3.32     
 3.29     3.29     3.30     3.32     3.36     3.42     3.49     3.55     3.62     3.72     
 3.81     3.94     4.06     4.20     4.36     4.53     4.71     4.90     5.11     5.33     
 5.53     5.76     5.99     6.24     6.49     6.76     7.03     7.32     7.60     7.91     
 8.20     8.53     8.87     9.23     9.58     9.95     10.35    10.77    11.18    11.62    
 12.11    12.61    13.12    13.63    14.15    14.74    15.33    15.97    16.66    17.39    
 18.19    19.14    20.20    21.43    22.89    24.60    26.71    29.09    31.79    34.84    
 38.28    42.13    46.25    50.83    55.93    61.70    68.20    75.48    83.95    94.08    
 105.43   119.33   133.26   149.32   166.58   184.68   203.72   222.68   242.38   261.63   
 280.37   298.23   314.90   329.66   341.59   350.94   357.05   360.46   361.05   358.94   
 354.45   348.22   340.59   331.27   320.12   307.40   292.39   276.43   259.20   240.79   
 216.38   
422379.09 422400.16 417977.63 408294.55 369087.47 325269.07 286254.08 234409.53 189108.24 142389.79 
 113045.82 83904.83 54763.83 47154.57 41635.11 37509.00 34168.24 26273.93 22240.83 17354.40 
 11578.12 7517.82  3477.78  1604.96  1071.71  552.91   34.10    21.65    18.02    16.75    
 15.91    14.49    13.53    12.57    11.64    10.45    9.56     8.75     8.29     8.17     
 8.02     7.85     7.67     7.46     6.96     6.61     6.36     5.98     5.55     5.37     
 5.05     4.80     4.61     4.52     4.39     4.28     4.13     4.06     4.02     4.00     
 3.98     3.96     3.93     3.92     3.91     3.90     3.89     3.89     3.87     3.86     
 3.84     3.81     3.79     3.76     3.73     3.70     3.67     3.64     3.62     3.60     
 3.59     3.59     3.59     3.59     3.61     3.62     3.68     3.71     3.79     3.87     
 3.97     4.09     4.21     4.36     4.51     4.68     4.84     5.04     5.23     5.44     
 5.64     5.85     6.08     6.33     6.60     6.87     7.14     7.43     7.72     8.02     
 8.34     8.67     9.02     9.38     9.75     10.15    10.56    10.99    11.43    11.91    
 12.40    12.89    13.41    13.96    14.53    15.13    15.78    16.48    17.22    18.02    
 18.88    19.84    20.89    22.10    23.54    25.19    27.23    29.64    32.41    35.57    
 39.05    42.94    47.39    52.14    57.35    63.18    69.61    76.82    85.17    95.26    
 106.83   119.91   134.10   150.41   168.60   187.35   206.52   226.11   247.06   268.02   
 286.68   304.53   321.81   336.34   348.35   357.09   362.61   364.79   363.52   359.24   
 352.70   344.53   334.62   323.87   312.00   298.95   284.78   269.55   253.16   235.16   
 216.38   
