IESNA:LM-63-2002
[TEST] 1
[TESTLAB] AOK
[TESTDATE] 2022-06-25
[ISSUEDATE] 2022-06-25 13:34:08
[NEARFIELD] 
[LAMPPOSITION] 0,0
[OTHER] EVERFINE GO-2000A_V1 SYSTEM
[MANUFAC] AOK
[LUMCAT] A
[LUMINAIRE] AOK-600WiSF-HV-S35-00-5070-2030D-P
[LAMPCAT] B
[LAMP] 3535
[BALLAST] E
[BALLASTCAT] F
[OTHER] 
[OTHER] Gamma(deg)    Fz(lm)      Ft(lm)     %Lum    %Lamp
[OTHER]   0- 10     23468.09    23468.09    31.95    31.95
[OTHER]  10- 20     24890.46    48358.56    65.84    65.84
[OTHER]  20- 30     10312.37    58670.93    79.88    79.88
[OTHER]  30- 40      5133.87    63804.79    86.87    86.87
[OTHER]  40- 50      3279.12    67083.92    91.33    91.33
[OTHER]  50- 60      2572.48    69656.40    94.84    94.84
[OTHER]  60- 70      1773.09    71429.49    97.25    97.25
[OTHER]  70- 80       849.40    72278.89    98.41    98.41
[OTHER]  80- 90       367.16    72646.05    98.91    98.91
[OTHER]  90-100       203.79    72849.84    99.19    99.19
[OTHER] 100-110       149.51    72999.35    99.39    99.39
[OTHER] 110-120       120.59    73119.94    99.55    99.55
[OTHER] 120-130        91.71    73211.66    99.68    99.68
[OTHER] 130-140        66.27    73277.93    99.77    99.77
[OTHER] 140-150        53.80    73331.73    99.84    99.84
[OTHER] 150-160        55.28    73387.00    99.92    99.92
[OTHER] 160-170        45.03    73432.03    99.98    99.98
[OTHER] 170-180        16.31    73448.34   100.00   100.00
[OTHER] 
TILT=NONE
1 73448 1 181 25 1 2 0.150 0.200 0.000
1.000 1 597.849
0.0    1.0    2.0    3.0    4.0    5.0    6.0    7.0    8.0    9.0    
 10.0   11.0   12.0   13.0   14.0   15.0   16.0   17.0   18.0   19.0   
 20.0   21.0   22.0   23.0   24.0   25.0   26.0   27.0   28.0   29.0   
 30.0   31.0   32.0   33.0   34.0   35.0   36.0   37.0   38.0   39.0   
 40.0   41.0   42.0   43.0   44.0   45.0   46.0   47.0   48.0   49.0   
 50.0   51.0   52.0   53.0   54.0   55.0   56.0   57.0   58.0   59.0   
 60.0   61.0   62.0   63.0   64.0   65.0   66.0   67.0   68.0   69.0   
 70.0   71.0   72.0   73.0   74.0   75.0   76.0   77.0   78.0   79.0   
 80.0   81.0   82.0   83.0   84.0   85.0   86.0   87.0   88.0   89.0   
 90.0   91.0   92.0   93.0   94.0   95.0   96.0   97.0   98.0   99.0   
 100.0  101.0  102.0  103.0  104.0  105.0  106.0  107.0  108.0  109.0  
 110.0  111.0  112.0  113.0  114.0  115.0  116.0  117.0  118.0  119.0  
 120.0  121.0  122.0  123.0  124.0  125.0  126.0  127.0  128.0  129.0  
 130.0  131.0  132.0  133.0  134.0  135.0  136.0  137.0  138.0  139.0  
 140.0  141.0  142.0  143.0  144.0  145.0  146.0  147.0  148.0  149.0  
 150.0  151.0  152.0  153.0  154.0  155.0  156.0  157.0  158.0  159.0  
 160.0  161.0  162.0  163.0  164.0  165.0  166.0  167.0  168.0  169.0  
 170.0  171.0  172.0  173.0  174.0  175.0  176.0  177.0  178.0  179.0  
 180.0  
0.0    15.0   30.0   45.0   60.0   75.0   90.0   105.0  120.0  135.0  
 150.0  165.0  180.0  195.0  210.0  225.0  240.0  255.0  270.0  285.0  
 300.0  315.0  330.0  345.0  360.0  
328591.28 329619.01 326920.08 319114.16 282298.95 233644.83 187681.65 135912.00 103810.23 71948.70 
 40087.18 20938.15 11121.39 7577.31  4100.61  623.91   494.92   337.95   144.87   95.29    
 47.48    35.25    27.93    22.72    19.04    16.45    14.31    12.61    11.40    10.33    
 9.61     9.88     10.14    10.21    9.56     8.91     8.40     7.42     6.57     5.88     
 5.64     5.47     5.16     4.99     4.75     4.61     4.64     4.73     4.41     4.06     
 3.94     3.84     3.83     3.83     3.95     4.04     3.95     3.86     3.85     3.85     
 3.84     3.83     3.82     3.82     3.81     3.80     3.78     3.76     3.73     3.73     
 3.73     3.72     3.72     3.71     3.71     3.71     3.71     3.71     3.71     3.72     
 3.72     3.72     3.71     3.75     3.98     4.21     4.34     4.46     4.50     4.55     
 4.61     4.69     4.75     4.77     4.77     4.79     4.88     5.00     5.16     5.36     
 5.58     5.85     6.16     6.49     6.86     7.24     7.63     8.00     8.36     8.71     
 9.06     9.40     9.72     10.05    10.41    10.79    11.20    11.65    12.14    12.64    
 13.18    13.73    14.34    14.97    15.60    16.27    16.99    17.76    18.55    19.37    
 20.23    21.09    21.98    22.93    23.93    25.04    26.38    27.97    29.92    32.16    
 34.76    37.77    41.18    45.03    49.35    54.18    59.71    66.27    73.67    82.32    
 92.30    103.64   116.54   130.59   145.80   161.58   177.78   194.48   211.11   227.37   
 243.56   259.75   273.07   284.10   292.40   297.68   299.96   299.22   295.79   290.10   
 282.63   273.34   262.83   251.40   239.46   226.99   214.36   201.63   188.56   174.50   
 160.25   
328591.28 329325.98 327413.03 320815.64 302573.06 254940.58 207347.44 163699.84 113045.06 83505.40 
 51267.89 38850.15 26432.41 14014.67 1705.58  1480.11  1175.25  820.56   801.44   634.43   
 503.16   406.33   309.50   213.00   156.58   121.23   93.73    74.13    58.83    46.91    
 41.87    37.89    35.90    29.45    21.04    16.96    14.10    11.98    10.38    9.14     
 8.53     8.52     8.48     8.38     8.02     7.74     7.48     7.23     7.05     6.71     
 6.32     6.05     5.81     5.57     5.38     5.18     4.98     4.82     4.70     4.54     
 4.36     4.21     4.03     3.89     3.75     3.66     3.55     3.48     3.41     3.36     
 3.26     3.18     3.11     3.06     3.01     2.98     2.93     2.93     2.92     2.93     
 2.96     3.00     3.06     3.10     3.16     3.23     3.27     3.35     3.44     3.53     
 3.65     3.77     3.88     4.01     4.16     4.32     4.51     4.72     4.94     5.19     
 5.45     5.72     6.04     6.37     6.73     7.09     7.44     7.79     8.15     8.49     
 8.84     9.19     9.56     9.92     10.31    10.74    11.23    11.72    12.22    12.76    
 13.33    13.93    14.58    15.24    15.93    16.66    17.44    18.24    19.07    19.93    
 20.82    21.72    22.65    23.66    24.77    26.06    27.69    29.59    31.79    34.31    
 37.27    40.55    44.20    48.38    53.06    58.40    64.44    71.42    79.44    88.78    
 99.64    111.78   125.94   140.12   155.30   171.12   187.37   203.32   219.78   235.77   
 251.01   265.16   277.39   287.49   294.41   298.07   298.74   296.46   291.49   284.70   
 276.00   266.08   255.47   244.00   232.39   220.44   208.10   195.78   182.18   167.69   
 160.25   
328591.28 328389.34 326094.56 318638.57 307608.90 274209.49 227040.65 187118.59 149104.26 116454.17 
 83867.74 51281.32 36266.77 19770.25 14429.48 8406.88  2375.93  2098.70  1714.07  1302.80  
 1072.99  845.36   617.72   456.46   348.83   280.19   210.96   163.12   147.72   126.11   
 104.42   82.73    72.13    62.39    54.67    47.45    41.38    34.98    30.26    26.01    
 22.31    18.72    16.46    14.77    13.73    12.72    11.86    11.31    10.63    9.81     
 9.07     8.25     7.44     6.89     6.52     6.23     5.89     5.53     5.18     4.84     
 4.59     4.40     4.26     4.13     3.98     3.78     3.58     3.40     3.26     3.15     
 3.06     2.99     2.93     2.87     2.81     2.75     2.70     2.63     2.59     2.57     
 2.56     2.57     2.63     2.70     2.78     2.87     2.97     3.10     3.23     3.36     
 3.52     3.68     3.86     4.06     4.26     4.48     4.72     4.96     5.20     5.46     
 5.71     5.98     6.25     6.52     6.82     7.14     7.47     7.79     8.14     8.50     
 8.90     9.30     9.69     10.12    10.58    11.04    11.53    12.01    12.51    13.07    
 13.63    14.21    14.84    15.49    16.15    16.83    17.56    18.31    19.14    20.03    
 21.02    22.13    23.44    24.96    26.73    28.78    31.02    33.61    36.47    39.71    
 43.34    47.45    52.07    57.22    62.97    69.50    76.93    85.22    94.65    105.13   
 116.62   128.84   141.71   155.36   169.94   184.65   199.27   213.66   228.35   242.71   
 257.07   267.91   276.67   283.32   287.19   288.48   287.20   283.61   278.15   270.89   
 262.45   252.83   243.46   232.62   221.81   210.57   199.38   188.05   176.46   164.70   
 160.25   
328591.28 328324.20 324928.61 318284.70 308350.69 294735.76 261666.75 228597.73 195508.80 159780.48 
 125953.60 94816.59 67132.69 55347.26 34879.98 25311.25 15793.90 11685.47 6855.94  2060.22  
 1808.16  1513.50  1083.97  764.95   529.59   413.83   298.06   183.11   154.15   132.21   
 114.66   100.66   89.02    79.51    71.21    63.81    56.86    51.45    46.82    42.12    
 37.71    33.80    30.33    27.06    24.06    21.00    17.87    15.47    13.42    12.10    
 11.23    10.48    9.83     9.31     8.84     8.43     8.01     7.65     7.33     7.03     
 6.75     6.46     6.20     5.95     5.75     5.56     5.36     5.14     4.90     4.66     
 4.40     4.14     3.88     3.67     3.45     3.21     3.00     2.82     2.64     2.51     
 2.44     2.45     2.49     2.55     2.63     2.74     2.85     2.97     3.10     3.24     
 3.41     3.57     3.75     3.94     4.14     4.35     4.57     4.79     5.03     5.29     
 5.54     5.80     6.09     6.39     6.71     7.04     7.37     7.71     8.07     8.44     
 8.82     9.21     9.62     10.02    10.44    10.88    11.34    11.81    12.30    12.80    
 13.33    13.89    14.51    15.17    15.86    16.66    17.57    18.60    19.74    21.01    
 22.45    24.05    25.88    27.92    30.12    32.62    35.45    38.60    42.03    45.92    
 50.37    55.23    60.74    66.88    73.75    81.47    89.91    99.09    109.00   120.47   
 131.94   143.87   155.91   169.02   182.02   195.30   208.20   220.48   232.27   242.75   
 251.83   259.42   265.26   269.18   271.13   271.38   269.75   266.50   261.86   255.91   
 249.52   241.90   233.46   224.58   215.66   206.65   197.39   188.14   178.44   168.94   
 160.25   
328591.28 327049.74 321633.03 314109.26 303902.01 291872.15 277017.08 259430.61 239510.75 209170.98 
 173073.71 144014.00 121703.86 99219.53 76732.47 60607.51 41808.98 31925.16 25514.32 17616.01 
 12857.62 10328.35 7824.79  5321.23  4036.46  1621.85  1157.69  936.97   718.54   518.87   
 375.13   282.64   226.46   189.81   159.37   134.01   115.80   97.66    84.15    73.14    
 64.19    57.31    51.40    46.39    42.01    37.79    34.31    31.69    29.31    27.27    
 25.46    23.55    21.41    19.32    17.11    15.02    13.39    12.21    11.42    10.86    
 10.48    10.20    9.90     9.63     9.41     9.21     9.02     8.83     8.67     8.47     
 8.22     7.94     7.58     7.19     6.73     6.24     5.63     4.95     4.23     3.52     
 2.95     2.73     2.70     2.74     2.82     2.92     3.03     3.15     3.27     3.41     
 3.56     3.73     3.90     4.08     4.29     4.51     4.75     5.00     5.26     5.53     
 5.82     6.12     6.43     6.76     7.11     7.45     7.79     8.15     8.52     8.91     
 9.29     9.66     10.05    10.47    10.90    11.34    11.79    12.26    12.76    13.33    
 13.94    14.61    15.35    16.14    17.03    18.03    19.14    20.36    21.74    23.23    
 24.84    26.64    28.66    30.88    33.39    36.24    39.52    43.24    47.49    52.28    
 57.62    63.54    70.23    77.61    85.65    94.38    103.60   113.27   123.56   134.35   
 145.45   156.63   167.80   178.90   190.16   200.96   211.00   220.20   228.45   236.24   
 244.03   248.66   252.29   254.85   256.04   255.93   254.63   252.24   248.66   244.33   
 239.44   233.67   227.33   220.44   213.74   206.35   199.08   191.47   183.55   175.54   
 160.25   
328591.28 326078.43 320639.74 312752.60 302427.73 290816.21 277681.38 263211.18 246356.55 229485.53 
 210480.76 189692.60 167306.34 145001.93 122983.89 103213.65 85437.80 68925.26 54489.59 42072.08 
 34369.72 29355.92 25669.10 21979.47 17970.41 15353.31 13370.00 11607.65 9823.53  7669.09  
 6255.39  5156.57  4212.53  3509.54  2887.65  2267.83  1888.66  1570.19  1272.40  1033.97  
 837.65   660.41   519.96   418.63   338.41   269.13   200.10   159.65   128.37   104.89   
 87.97    75.01    64.66    56.98    50.03    44.76    40.71    36.98    34.26    32.01    
 30.19    28.42    27.10    25.85    24.79    23.59    22.12    20.65    19.50    18.72    
 18.35    18.23    18.14    18.02    17.87    17.63    17.27    16.55    15.00    12.68    
 9.42     5.46     2.42     2.30     2.36     2.43     2.52     2.60     2.69     2.79     
 2.91     3.04     3.18     3.35     3.52     3.71     3.91     4.13     4.37     4.62     
 4.89     5.16     5.45     5.75     6.07     6.40     6.75     7.11     7.47     7.85     
 8.25     8.66     9.06     9.47     9.88     10.32    10.81    11.32    11.84    12.39    
 13.00    13.69    14.44    15.28    16.21    17.23    18.33    19.57    20.92    22.40    
 23.98    25.80    27.87    30.14    32.72    35.71    39.31    43.36    47.84    53.03    
 58.93    65.36    72.51    80.19    88.47    97.38    106.52   116.06   126.22   136.39   
 146.71   156.60   166.45   176.47   185.81   195.12   203.83   212.05   219.93   226.97   
 233.31   239.03   243.79   247.72   250.64   252.56   253.34   253.33   251.74   249.37   
 246.22   242.23   237.27   231.45   225.36   218.75   211.52   203.97   196.18   188.25   
 160.25   
328591.28 324446.02 317785.72 308927.90 298010.26 286605.04 274079.36 260350.41 245136.32 229904.37 
 212956.33 194022.61 173454.59 151595.59 130127.11 109331.98 91381.02 76256.19 64394.90 54817.65 
 47020.00 40640.03 35622.50 31611.76 28256.71 25593.33 22935.35 20728.82 18602.96 16565.18 
 14629.38 12812.14 11225.29 9826.54  8668.52  7729.63  7011.24  6389.36  5873.95  5461.50  
 5094.01  4771.59  4510.06  4329.81  4143.57  3958.30  3751.49  3517.23  3263.15  2991.49  
 2755.61  2519.73  2284.30  2084.25  1898.17  1726.12  1563.43  1409.01  1272.74  1155.35  
 1046.11  944.03   850.11   761.90   678.94   603.02   533.17   470.15   413.00   363.16   
 319.68   279.13   244.62   210.21   183.48   160.99   141.92   125.47   110.09   97.26    
 85.31    73.63    60.70    8.45     3.01     2.26     1.82     1.64     1.49     1.41     
 1.32     1.23     1.22     1.23     1.23     1.25     1.27     1.29     1.32     1.35     
 1.38     1.42     1.45     1.48     1.52     1.56     1.62     1.66     1.71     1.77     
 1.83     1.90     1.96     2.02     2.09     2.15     2.24     2.33     2.41     2.52     
 2.64     2.76     2.89     3.04     3.21     3.40     3.60     3.82     4.07     4.34     
 4.65     5.00     5.39     5.84     6.38     6.95     7.62     8.40     9.27     10.20    
 11.32    12.50    13.79    15.21    16.74    18.37    20.05    21.80    23.60    25.48    
 27.41    29.34    31.35    33.40    35.51    37.69    40.02    42.51    45.15    47.90    
 50.76    53.80    57.08    60.64    64.47    68.68    73.34    78.92    84.80    91.69    
 99.51    108.11   117.48   127.50   137.96   148.58   159.28   169.84   180.08   189.35   
 160.25   
328591.28 324242.06 317186.31 308680.45 298575.98 287259.85 276220.87 264155.01 250890.80 235832.35 
 219687.49 201313.08 182166.09 161862.54 141271.95 120599.80 102575.68 84571.10 71363.16 61091.18 
 53257.65 47323.39 42530.88 38758.50 35490.04 32439.69 29831.17 27328.05 24814.92 22483.71 
 20150.31 17963.36 15955.96 14112.57 12508.31 11393.82 10283.35 9172.87  8455.74  7917.28  
 7472.84  7116.37  6792.43  6508.53  6259.92  6042.95  5829.86  5629.26  5438.00  5250.43  
 5047.36  4830.78  4603.24  4362.36  4116.53  3874.68  3641.70  3430.48  3240.34  3058.40  
 2877.34  2712.41  2556.78  2408.45  2267.83  2128.48  1991.55  1861.06  1732.64  1611.47  
 1495.99  1389.39  1283.15  1187.11  1091.18  995.24   912.01   833.51   758.43   692.80   
 633.01   578.46   529.35   486.64   447.62   415.37   386.21   359.97   340.98   321.06   
 302.12   284.67   269.99   255.82   243.07   231.23   219.03   207.51   198.16   188.04   
 178.92   170.50   162.73   155.53   148.42   141.40   134.96   129.50   123.72   117.94   
 112.71   107.87   102.61   97.48    92.34    87.58    83.41    78.95    74.94    70.17    
 65.96    61.93    57.78    53.17    48.79    44.42    39.96    33.57    27.13    20.36    
 14.91    11.35    9.50     7.96     6.28     5.16     5.28     5.76     6.47     7.30     
 8.22     9.25     10.37    11.59    12.96    14.40    15.92    17.52    19.21    20.97    
 22.75    24.54    26.34    28.19    30.04    31.84    33.75    35.71    37.67    39.67    
 41.76    43.95    46.23    48.70    51.29    54.31    57.83    61.98    67.01    73.45    
 80.77    89.41    99.26    110.00   121.49   133.62   145.87   158.47   170.70   182.54   
 160.25   
328591.28 324380.26 318097.11 309945.98 300524.93 290383.41 279327.29 267586.90 254663.05 238138.12 
 221583.70 202296.65 182827.89 163324.33 143535.23 123936.23 105420.78 88275.59 74332.59 63979.98 
 56823.89 51350.95 46898.33 43084.62 39652.06 36466.80 33537.34 30590.98 27873.84 25225.80 
 22579.31 20088.88 17863.38 15813.23 14008.54 12428.40 11096.05 10016.88 9174.17  8570.78  
 8115.75  7781.09  7501.99  7269.03  7051.31  6837.44  6647.16  6457.89  6286.92  6110.15  
 5948.97  5789.11  5608.00  5417.62  5207.07  4991.69  4772.22  4544.38  4318.68  4070.87  
 3844.98  3614.93  3405.01  3208.72  3017.35  2826.72  2642.59  2458.53  2281.00  2105.96  
 1942.22  1788.26  1647.27  1509.09  1382.04  1255.98  1142.68  1038.94  943.46   856.03   
 776.17   707.71   650.93   604.10   562.70   525.27   492.85   463.25   439.86   418.04   
 397.21   377.14   359.98   344.68   329.95   316.31   304.40   292.79   282.22   272.61   
 263.49   255.40   247.62   239.96   232.33   227.08   221.42   216.00   211.12   206.51   
 202.08   197.76   193.69   189.96   185.98   182.12   178.34   174.59   170.88   167.41   
 164.46   161.19   158.00   154.93   151.48   147.83   144.50   141.09   137.74   134.36   
 130.62   126.96   123.31   119.46   115.39   111.11   106.07   100.38   95.01    89.41    
 83.05    76.58    68.71    61.79    57.79    55.23    52.75    40.38    21.94    18.27    
 18.20    19.58    21.55    23.63    25.73    27.84    29.97    32.09    34.27    36.50    
 38.72    40.86    42.95    45.11    47.24    49.45    51.95    54.87    58.33    62.73    
 68.27    75.24    84.00    93.82    105.08   117.61   131.37   145.77   160.23   174.46   
 160.25   
328591.28 324142.98 317390.16 309037.89 300198.97 290434.08 279255.39 265380.07 247374.95 224831.68 
 200431.20 177436.33 156863.25 138167.33 121462.45 106938.70 92431.48 80721.99 70857.52 62970.32 
 56773.82 51578.88 46960.96 42592.68 38159.35 33887.37 29699.62 25677.56 21819.18 18273.82 
 15547.63 13606.11 12326.57 11609.41 10897.11 10184.81 9740.45  9327.05  8964.92  8624.97  
 8313.60  8017.30  7749.12  7493.60  7282.19  7075.96  6878.18  6706.89  6531.81  6344.28  
 6149.98  5953.90  5759.00  5586.10  5404.21  5207.84  5009.74  4810.83  4611.11  4399.77  
 4188.34  3969.90  3764.39  3561.42  3353.66  3150.66  2946.11  2742.34  2542.58  2344.05  
 2154.34  1987.13  1821.73  1661.90  1512.51  1372.81  1239.60  1136.91  1034.49  932.07   
 853.72   785.57   721.55   667.63   618.58   576.29   536.69   505.33   481.46   459.94   
 438.43   418.83   400.79   385.13   372.12   360.33   349.89   340.54   332.70   324.88   
 317.63   311.45   305.71   300.36   295.45   290.71   286.72   282.81   279.33   275.38   
 271.82   268.30   265.51   262.65   259.39   256.44   253.40   250.54   247.62   244.50   
 240.94   237.47   233.60   230.04   226.56   223.13   219.35   215.14   211.03   206.94   
 202.73   198.82   194.35   189.74   185.01   180.66   176.28   171.93   167.16   162.12   
 157.22   152.27   147.66   142.84   138.32   133.72   125.35   116.96   109.95   101.14   
 95.99    91.04    82.67    80.76    79.32    74.02    43.83    35.09    33.52    33.98    
 35.65    37.63    40.21    43.01    45.81    48.67    51.40    54.06    56.96    60.21    
 64.13    69.05    75.23    82.89    92.06    103.11   116.16   130.91   146.47   162.96   
 160.25   
328591.28 324355.25 317473.57 309130.33 299907.69 289273.65 275336.71 251254.67 227172.61 203055.17 
 175620.65 151924.31 132161.02 116546.36 103705.83 92776.03 83022.74 74650.19 67385.85 61344.36 
 55364.64 49352.08 42836.07 36208.35 30126.85 25515.88 20929.92 18442.23 16854.45 15719.41 
 14815.58 14004.69 13336.66 12748.47 12187.23 11653.54 11131.22 10664.83 10256.63 9864.82  
 9482.24  9139.25  8811.49  8507.79  8221.09  7925.63  7629.57  7350.27  7076.97  6840.38  
 6585.53  6363.04  6156.20  5963.48  5779.76  5594.07  5409.82  5212.39  5009.05  4810.52  
 4615.46  4411.44  4189.44  3957.98  3732.51  3488.99  3252.83  3034.56  2816.36  2604.44  
 2392.64  2191.23  2007.81  1834.06  1664.92  1521.68  1391.99  1271.57  1161.47  1063.20  
 977.93   894.94   824.48   760.96   705.58   655.02   610.78   574.44   544.12   519.13   
 496.71   473.97   452.92   434.48   419.36   406.59   397.04   388.75   381.94   376.11   
 371.45   367.47   364.19   361.30   359.14   357.58   355.98   354.34   352.91   351.92   
 351.01   349.97   348.76   347.45   345.32   342.32   337.95   333.40   328.58   322.48   
 316.47   309.98   303.36   297.00   290.64   284.63   278.74   272.81   266.97   261.08   
 254.81   249.21   243.83   237.37   230.93   225.41   219.85   213.05   205.38   197.32   
 187.61   180.54   174.47   169.28   165.45   162.98   159.47   154.18   150.85   146.06   
 141.72   137.63   127.56   121.91   117.65   111.81   104.93   97.06    95.37    90.20    
 55.10    39.89    41.25    42.94    45.42    49.07    52.81    56.54    60.12    63.42    
 66.58    69.91    73.76    78.46    84.57    92.57    102.77   115.91   131.13   147.85   
 160.25   
328591.28 323932.79 316219.87 307025.87 296442.18 282616.40 263071.43 237535.87 208090.89 177744.76 
 150104.50 129018.64 116292.84 103636.53 90980.22 82896.66 75945.31 69866.52 64008.34 57838.00 
 50364.25 42465.95 34795.86 28323.04 24267.10 22004.94 20697.23 19729.97 18888.19 18145.80 
 17494.70 16934.83 16367.92 15820.59 15202.67 14552.69 13953.59 13323.42 12659.40 12009.02 
 11438.06 10867.88 10361.65 9893.84  9439.53  8991.72  8586.61  8214.15  7857.51  7530.90  
 7224.12  6943.71  6699.38  6498.81  6337.28  6200.00  6157.79  6141.10  6165.69  6074.56  
 5911.91  5600.35  5297.98  4948.35  4610.21  4285.72  3926.69  3609.59  3270.14  2964.39  
 2706.37  2485.42  2272.12  2075.80  1901.55  1746.22  1605.41  1469.51  1344.02  1236.94  
 1145.44  1054.07  962.69   890.05   826.86   768.40   717.95   670.50   634.69   604.01   
 576.41   549.15   521.97   498.15   478.08   460.28   445.46   434.51   425.32   418.59   
 413.69   410.04   407.65   406.13   404.92   404.30   404.43   404.00   402.75   400.60   
 398.52   397.65   397.04   396.47   395.27   393.28   390.91   387.59   383.49   377.66   
 371.35   364.00   355.70   347.22   338.31   329.35   320.22   311.48   303.15   295.31   
 287.73   280.33   272.67   265.44   258.56   251.81   233.86   226.03   220.99   216.95   
 211.57   205.35   199.29   193.23   186.61   180.89   174.75   167.92   162.37   157.35   
 152.45   148.65   144.75   141.33   134.83   128.59   122.35   117.99   115.61   103.30   
 101.31   93.40    50.50    47.20    50.67    53.93    58.09    62.81    67.39    71.68    
 75.20    78.31    81.03    83.81    87.32    92.94    101.36   113.15   127.00   142.75   
 160.25   
328591.28 324347.49 316901.67 307470.11 295983.21 279844.70 252274.65 224704.65 197098.99 166076.94 
 139326.64 120735.45 106862.08 96324.37 87993.18 81238.30 75489.81 69986.76 64357.78 57754.34 
 49849.60 41256.95 33332.33 28028.91 26246.85 24464.78 22695.29 21977.19 21364.75 20846.73 
 20321.44 19798.95 19222.79 18577.45 17825.41 17028.14 16136.12 15232.98 14364.44 13532.67 
 12781.98 12099.70 11442.39 10837.75 10247.55 9741.19  9298.37  8883.40  8469.30  8096.37  
 7776.00  7497.74  7252.31  7027.38  6846.97  6836.10  7157.83  7337.40  7535.50  7577.37  
 7282.26  6922.10  6441.93  5958.37  5490.10  5109.94  4599.53  4189.90  3755.10  3382.90  
 3059.73  2816.56  2573.39  2330.82  2135.95  1957.67  1791.21  1641.83  1502.60  1383.32  
 1271.43  1168.76  1075.74  991.62   918.13   849.77   787.85   734.03   688.02   651.65   
 618.23   588.99   558.93   530.76   504.42   483.02   464.48   448.81   436.74   426.12   
 418.61   413.39   409.64   407.44   405.89   404.46   403.43   402.82   401.75   398.90   
 395.42   390.93   387.69   385.10   382.54   379.94   376.91   373.65   369.79   364.88   
 358.65   351.73   344.62   336.82   328.90   320.76   312.54   304.62   296.96   289.60   
 282.59   275.51   268.41   261.40   254.47   247.93   237.23   226.52   215.89   210.86   
 206.09   201.41   196.56   191.49   186.56   181.21   176.38   171.63   167.03   162.37   
 157.81   153.81   150.93   148.07   145.31   142.22   138.72   133.38   125.37   113.75   
 104.08   100.70   84.17    53.66    56.82    59.98    64.40    69.79    75.23    80.34    
 84.78    88.43    91.32    93.44    95.21    97.79    102.44   110.44   122.54   139.24   
 160.25   
328591.28 324317.45 316733.86 307226.20 295489.21 278679.08 255433.98 226206.27 193961.12 163149.13 
 138550.83 121078.48 109679.91 98331.66 90516.38 83775.98 78244.27 73002.07 67821.80 61794.11 
 54251.38 45929.30 37553.00 30976.60 26875.61 24848.75 23754.80 23061.02 22490.49 22023.68 
 21609.13 21167.46 20532.19 19820.19 18977.25 18042.39 17055.43 16048.31 15075.30 14186.62 
 13365.82 12596.93 11879.82 11223.36 10567.45 10013.23 9517.92  9069.94  8645.17  8264.63  
 7906.65  7595.41  7342.60  7099.94  6880.17  6714.61  6724.81  6899.82  6949.68  6947.26  
 6776.20  6423.33  6105.73  5682.56  5317.55  4950.29  4595.00  4166.60  3772.39  3422.90  
 3123.43  2884.44  2656.94  2410.13  2200.29  2012.01  1845.52  1694.04  1552.69  1420.23  
 1308.66  1202.47  1107.50  1012.61  937.19   870.62   807.11   751.20   702.64   662.76   
 629.85   599.11   570.59   542.86   516.51   493.35   472.90   456.18   441.90   429.80   
 420.14   411.70   404.86   399.63   394.89   390.16   385.65   381.39   376.65   370.97   
 364.59   358.55   353.24   348.15   343.24   338.20   333.25   328.18   322.36   316.37   
 309.81   303.55   297.29   291.08   285.08   279.08   273.22   267.22   261.63   256.07   
 250.80   245.46   239.99   234.60   229.42   224.04   214.77   206.12   201.96   197.74   
 193.19   189.02   185.15   180.94   176.94   172.25   168.12   163.90   159.47   156.03   
 152.08   149.13   145.66   142.78   137.50   133.58   130.06   125.57   121.09   110.39   
 103.88   91.02    58.05    59.80    63.52    67.84    73.56    79.59    85.31    90.49    
 94.96    98.65    101.43   103.36   104.93   106.84   110.08   115.79   124.41   136.25   
 160.25   
328591.28 325360.78 319064.38 310653.86 300428.43 286993.55 269289.67 244761.56 220199.78 192390.76 
 166825.74 146078.83 129297.16 116124.68 104459.61 95478.03 87864.53 81172.12 75289.45 69525.90 
 63852.36 57320.13 49915.61 42206.42 34810.25 28921.53 25709.63 22518.95 21070.20 20113.84 
 19374.30 18736.98 18145.83 17601.46 17050.71 16429.94 15739.22 14986.79 14225.57 13497.44 
 12794.19 12067.84 11431.46 10854.65 10341.54 9832.20  9338.01  8874.76  8456.26  8068.48  
 7706.93  7365.74  7053.96  6792.33  6559.86  6349.30  6164.41  5984.72  5804.64  5624.73  
 5459.97  5256.79  5018.35  4773.26  4509.05  4257.27  3999.80  3734.80  3476.11  3208.90  
 2967.71  2761.41  2555.11  2349.03  2161.12  1973.25  1787.02  1629.80  1490.98  1363.87  
 1247.13  1137.35  1043.33  957.42   879.85   811.72   751.78   698.26   651.25   609.19   
 577.44   551.14   526.41   502.74   478.59   456.80   437.81   419.77   404.93   391.66   
 380.39   370.68   361.67   353.66   345.87   338.60   331.84   325.13   318.55   311.78   
 305.60   299.81   294.36   289.18   284.30   279.34   274.50   269.75   264.79   260.21   
 255.47   250.03   245.45   240.31   235.17   230.04   225.80   221.75   218.21   213.97   
 210.02   206.03   202.24   198.72   194.28   190.83   186.98   183.32   179.92   176.22   
 172.59   168.41   163.53   157.71   152.08   145.38   139.67   135.65   133.42   131.74   
 129.46   129.88   123.56   118.93   114.88   109.98   104.60   99.38    97.56    88.77    
 56.52    55.73    59.22    63.13    68.33    74.47    80.68    86.66    92.18    97.18    
 101.52   105.14   108.13   110.63   113.12   116.08   120.00   125.17   131.95   140.74   
 160.25   
328591.28 326009.04 320818.60 313857.13 305847.56 296581.98 284582.72 270412.53 253640.24 234142.49 
 212394.97 189991.79 168179.47 149433.95 133775.90 120648.33 109827.84 99024.21 90041.83 81827.08 
 74294.18 67438.43 61255.85 55230.00 49205.42 43367.63 37487.60 31995.95 26853.18 22471.57 
 19263.95 17067.60 15599.06 14522.16 13698.87 12981.00 12395.11 11826.18 11432.03 11039.20 
 10613.54 10239.45 9854.99  9479.69  9126.61  8785.00  8462.82  8171.81  7879.05  7619.71  
 7367.77  7108.76  6858.53  6618.44  6407.02  6211.56  6017.84  5814.48  5599.75  5379.70  
 5145.10  4914.64  4674.74  4446.81  4221.01  3994.83  3768.24  3543.25  3329.16  3113.95  
 2903.96  2699.66  2480.28  2279.49  2095.78  1920.68  1761.35  1609.41  1461.56  1323.01  
 1192.59  1091.39  990.42   902.16   829.91   765.18   705.84   654.22   608.61   570.29   
 535.98   509.43   485.92   462.58   440.05   417.77   398.03   381.08   366.76   353.38   
 340.56   329.57   318.64   309.58   300.44   291.39   283.40   276.01   269.79   262.97   
 256.46   251.07   246.12   240.58   235.42   231.12   227.10   223.13   219.28   215.05   
 211.54   207.48   203.85   200.35   196.81   193.57   190.60   187.19   183.74   180.59   
 177.40   174.82   171.54   167.53   163.81   160.53   157.08   153.58   149.52   145.62   
 141.92   136.90   132.13   126.39   120.64   115.20   110.18   104.34   98.90    94.31    
 87.64    81.88    74.27    69.90    68.78    48.27    39.69    40.88    45.26    50.22    
 54.10    59.26    64.79    70.35    75.73    81.07    86.15    91.03    95.60    99.90    
 103.61   107.11   110.62   114.17   118.09   122.81   128.28   134.53   141.45   149.39   
 160.25   
328591.28 327964.92 325176.57 320750.28 315366.73 309547.38 303763.74 297643.88 290018.15 280355.66 
 267807.44 249168.58 230529.70 211866.43 191109.58 172265.38 154923.59 138916.47 123836.72 110039.19 
 96768.17 84298.42 73290.06 64569.20 57499.92 51967.61 47333.68 43571.27 40100.81 36533.98 
 33173.60 29752.96 26759.42 23765.88 20774.89 18014.86 15531.29 13457.44 11841.65 10594.44 
 9693.21  9063.42  8625.79  8292.07  8005.05  7757.85  7547.85  7355.04  7155.00  6954.87  
 6780.65  6623.83  6476.19  6324.96  6174.38  6010.07  5840.30  5649.92  5450.55  5238.55  
 5012.42  4780.13  4537.00  4294.77  4059.75  3839.43  3623.58  3412.17  3201.65  2999.73  
 2810.69  2623.64  2436.56  2247.66  2068.77  1904.63  1753.59  1608.95  1471.03  1338.89  
 1215.59  1101.58  1000.77  906.82   822.93   748.92   689.79   640.99   597.06   558.86   
 526.13   495.32   472.56   449.97   427.44   405.98   386.95   368.99   353.18   337.31   
 323.18   309.97   297.58   285.30   274.15   263.92   254.99   246.16   237.33   228.52   
 221.50   215.21   209.30   203.52   197.74   192.47   187.69   183.16   178.99   174.62   
 170.39   165.72   161.80   158.19   153.82   149.70   145.49   141.51   137.35   132.94   
 128.47   124.29   119.52   115.04   110.71   106.38   102.26   97.16    92.43    87.53    
 82.54    76.89    70.32    63.39    56.41    49.98    44.54    26.66    18.07    17.04    
 19.00    21.84    25.07    28.59    32.41    36.60    41.00    45.63    50.51    55.46    
 60.44    65.32    70.13    74.82    79.29    83.64    87.87    92.06    96.08    100.07   
 104.05   108.13   112.50   117.26   122.53   128.50   135.28   142.43   149.99   157.66   
 160.25   
328591.28 329487.33 328738.00 326860.72 323939.16 320501.29 316772.17 312603.01 307992.37 301985.78 
 293381.07 283162.02 270422.19 256148.76 240031.56 222067.96 203622.90 184528.17 165109.09 144772.60 
 123870.78 104308.61 84758.47 70335.94 60339.62 53346.97 48013.34 43810.22 40334.53 37084.44 
 34023.15 31138.46 28489.86 25843.37 23216.75 20820.97 18431.08 16200.37 14250.83 12587.90 
 11442.96 10303.07 9163.18  8451.18  7915.12  7481.74  7127.44  6833.87  6586.36  6381.57  
 6187.72  5999.05  5814.46  5636.35  5463.14  5270.63  5062.63  4846.85  4615.67  4368.24  
 4108.98  3866.44  3639.06  3428.33  3233.87  3045.61  2859.81  2688.15  2520.23  2357.59  
 2203.86  2059.48  1915.17  1775.69  1645.52  1523.49  1409.20  1300.61  1193.28  1101.78  
 1010.40  923.71   840.53   765.49   697.88   636.72   580.87   534.09   491.82   453.97   
 421.71   392.36   365.12   346.59   326.51   307.78   289.61   274.35   262.03   249.60   
 234.96   223.07   211.17   200.31   191.10   178.44   169.11   161.87   154.22   145.65   
 138.68   131.98   125.37   118.76   113.73   107.25   101.92   96.54    91.21    85.93    
 80.48    75.50    69.91    64.36    58.92    54.03    48.73    43.26    37.82    32.06    
 26.26    20.64    16.20    11.01    7.68     6.27     6.01     6.45     7.03     7.75     
 8.59     9.55     10.64    11.86    13.30    14.91    16.70    18.63    20.89    23.32    
 25.98    28.84    31.95    35.30    38.80    42.45    46.35    50.41    54.52    58.78    
 63.08    67.45    71.80    76.10    80.30    84.55    88.87    93.29    97.79    102.42   
 107.17   112.27   117.68   123.53   129.96   137.24   144.77   152.96   161.44   170.30   
 160.25   
328591.28 331443.24 332897.21 333149.65 332163.07 330258.88 327432.52 323054.97 315933.39 306250.70 
 294759.96 282458.12 268842.76 254738.39 239916.94 222714.45 203324.17 182517.34 159876.78 137055.63 
 115298.92 98026.97 80807.49 68032.52 57504.04 49212.60 42715.68 37339.16 33363.27 29732.57 
 26638.62 23981.38 21526.71 19417.88 17320.91 15330.70 13404.88 11641.80 10281.10 8924.52  
 7862.00  7028.37  6396.34  5885.97  5470.67  5116.91  4780.26  4495.46  4288.54  4115.31  
 3939.29  3756.36  3536.96  3292.29  3041.73  2780.29  2547.55  2343.17  2155.12  1977.26  
 1811.53  1653.17  1501.65  1362.22  1234.93  1122.59  1010.42  908.30   811.98   723.62   
 643.36   567.04   500.08   438.93   383.97   335.07   290.86   250.88   217.07   187.51   
 161.19   137.79   118.73   99.72    84.88    72.43    62.03    51.87    25.18    8.13     
 5.13     3.69     3.16     3.17     3.18     3.19     3.20     3.21     3.28     3.37     
 3.47     3.58     3.70     3.83     3.99     4.14     4.31     4.49     4.69     4.89     
 5.11     5.34     5.57     5.82     6.08     6.36     6.64     6.92     7.23     7.54     
 7.86     8.20     8.57     8.96     9.38     9.82     10.31    10.86    11.50    12.20    
 12.98    13.85    14.83    15.91    17.13    18.51    20.06    21.84    23.86    26.14    
 28.81    31.87    35.37    39.54    44.31    49.66    55.52    61.96    68.89    76.64    
 85.10    93.81    102.80   111.87   120.87   129.73   138.99   148.35   157.42   166.05   
 174.28   182.40   190.20   197.37   204.11   210.23   215.60   220.34   224.20   227.19   
 229.15   230.25   230.36   229.53   227.84   225.32   221.70   217.32   212.04   205.89   
 160.25   
328591.28 331817.98 333605.16 333991.34 332862.91 330775.69 327841.96 323369.49 315484.82 303714.48 
 290060.22 273948.41 248449.29 222950.19 197437.72 170463.49 146140.28 126694.53 110197.63 92596.47 
 74885.34 58944.50 46761.50 37964.37 31209.96 25164.87 19144.74 15850.86 13384.80 11624.02 
 9904.84  8349.43  6323.69  5220.31  4416.27  3708.63  2953.02  2200.67  1805.35  1493.94  
 1148.56  897.90   738.16   626.03   534.28   449.08   371.41   302.93   253.80   204.82   
 171.96   144.27   126.04   111.03   97.38    83.07    73.10    65.22    57.96    52.72    
 48.15    43.87    39.90    37.06    34.59    32.58    30.80    28.97    26.78    24.91    
 23.67    23.15    22.89    22.95    23.17    23.54    23.80    23.84    23.81    23.72    
 23.45    22.76    21.49    19.50    15.93    10.89    6.17     2.49     2.34     2.41     
 2.48     2.56     2.66     2.76     2.87     2.99     3.12     3.28     3.43     3.60     
 3.78     3.96     4.17     4.38     4.60     4.84     5.09     5.36     5.61     5.89     
 6.19     6.51     6.82     7.13     7.45     7.79     8.15     8.54     8.92     9.31     
 9.71     10.16    10.65    11.16    11.67    12.24    12.86    13.55    14.28    15.10    
 16.02    17.06    18.17    19.40    20.75    22.29    24.00    25.93    28.10    30.57    
 33.46    36.73    40.52    44.78    49.60    55.08    61.10    67.68    74.84    82.51    
 90.81    99.21    107.79   116.96   125.95   135.10   144.13   152.79   161.71   170.21   
 178.51   186.41   193.88   201.04   207.66   213.69   219.19   224.05   228.06   231.27   
 233.45   234.65   234.63   233.47   231.31   227.95   223.48   218.04   211.25   203.36   
 160.25   
328591.28 331556.24 332574.36 331203.56 327794.44 322838.11 312969.22 286886.81 259933.89 232696.93 
 203524.97 173738.94 146746.59 118878.13 94935.51 71034.89 60887.40 46874.14 32683.92 26976.75 
 19077.42 12525.34 8391.35  4284.94  2080.74  1618.26  1354.96  1085.39  815.74   546.08   
 395.81   298.75   245.56   213.70   188.10   167.64   145.44   127.99   114.76   101.57   
 90.16    80.91    71.30    63.89    57.65    52.73    47.81    44.48    40.72    37.17    
 33.95    30.62    26.85    23.21    19.77    17.41    15.71    14.17    13.12    12.35    
 11.84    11.42    11.02    10.62    10.22    9.82     9.57     9.37     9.14     8.91     
 8.76     8.59     8.47     8.33     8.01     7.72     7.46     7.09     6.62     6.00     
 5.46     4.86     4.20     3.57     3.00     2.81     2.79     2.85     2.90     2.99     
 3.09     3.20     3.30     3.45     3.57     3.72     3.91     4.11     4.32     4.56     
 4.81     5.06     5.31     5.57     5.83     6.12     6.41     6.71     7.03     7.35     
 7.68     8.00     8.35     8.71     9.08     9.46     9.82     10.20    10.61    11.03    
 11.48    11.92    12.40    12.89    13.45    14.05    14.71    15.44    16.26    17.18    
 18.15    19.24    20.44    21.76    23.22    24.80    26.68    28.80    31.19    33.89    
 36.93    40.33    44.19    48.50    53.44    59.40    65.97    73.11    80.65    88.60    
 96.87    105.73   115.59   125.66   135.77   145.72   155.55   165.16   175.08   184.51   
 193.27   201.33   208.69   215.69   221.92   227.40   232.05   236.52   241.00   243.41   
 244.52   244.96   244.19   242.21   238.74   234.32   228.42   221.17   212.15   201.64   
 160.25   
328591.28 331475.33 331564.91 328229.61 321459.22 293326.18 259746.98 226167.77 192593.44 159607.98 
 118774.45 92286.98 74462.80 48212.30 37729.67 27247.05 16816.45 11869.29 6922.14  2010.36  
 1850.53  1447.57  1171.03  963.74   747.98   564.44   433.94   341.91   270.45   199.20   
 149.19   120.15   101.72   87.65    76.63    68.46    62.29    57.14    51.28    46.76    
 42.95    39.05    34.94    31.34    26.98    23.54    20.61    18.47    16.78    15.49    
 14.36    13.46    12.61    11.81    10.98    10.05    9.36     8.74     8.29     7.91     
 7.52     7.08     6.72     6.41     6.11     5.85     5.62     5.37     5.05     4.87     
 4.72     4.60     4.48     4.29     4.06     3.81     3.63     3.48     3.34     3.21     
 3.09     2.94     2.88     2.88     2.91     2.96     3.04     3.14     3.24     3.35     
 3.45     3.53     3.59     3.70     3.83     3.98     4.16     4.34     4.53     4.74     
 4.96     5.19     5.44     5.70     5.97     6.24     6.52     6.81     7.09     7.41     
 7.73     8.08     8.42     8.77     9.13     9.51     9.89     10.31    10.72    11.13    
 11.56    12.05    12.54    13.05    13.57    14.12    14.75    15.45    16.22    17.09    
 18.07    19.17    20.40    21.77    23.32    25.02    26.94    29.13    31.45    34.08    
 37.06    40.42    44.22    48.46    53.31    58.85    64.99    71.89    79.40    87.74    
 96.89    106.52   117.55   128.58   139.85   151.71   163.69   175.43   187.32   198.61   
 209.07   218.71   227.26   234.93   241.31   246.50   250.45   253.82   255.68   256.15   
 255.31   253.44   250.64   246.60   241.67   235.32   227.35   218.29   207.28   194.79   
 160.25   
328591.28 330638.99 329051.31 323026.78 297200.67 252945.19 212264.19 172649.86 125089.77 96606.64 
 68352.07 43052.48 28554.61 17950.29 12361.23 6825.25  1289.28  972.83   722.85   726.63   
 580.15   491.98   439.13   363.87   309.03   256.38   229.80   171.00   139.02   116.19   
 93.48    78.62    67.55    59.46    52.67    47.46    43.39    38.97    34.47    29.68    
 26.41    25.18    23.05    20.66    18.79    16.97    15.59    14.37    13.05    12.19    
 11.48    10.35    9.32     8.52     7.40     6.78     6.57     6.48     6.34     6.10     
 5.82     5.55     5.34     5.02     4.74     4.48     4.27     4.09     3.89     3.70     
 3.50     3.34     3.20     3.10     3.01     2.94     2.88     2.82     2.77     2.72     
 2.70     2.70     2.69     2.72     2.78     2.85     2.93     3.02     3.12     3.22     
 3.34     3.46     3.59     3.74     3.88     4.03     4.22     4.41     4.61     4.83     
 5.05     5.31     5.57     5.83     6.12     6.44     6.77     7.08     7.40     7.74     
 8.10     8.45     8.83     9.23     9.62     10.03    10.44    10.86    11.31    11.77    
 12.23    12.70    13.18    13.66    14.16    14.70    15.25    15.84    16.48    17.20    
 17.98    18.90    19.91    21.13    22.51    24.06    25.93    28.06    30.47    33.16    
 36.14    39.42    43.11    47.22    51.80    57.23    63.47    70.50    78.30    86.85    
 96.19    106.17   116.87   128.88   141.62   154.85   168.27   181.89   195.72   209.73   
 222.63   234.34   246.04   255.08   262.24   267.41   270.81   272.47   272.49   271.08   
 268.28   263.63   257.67   250.26   242.18   232.72   222.17   210.41   197.36   182.58   
 160.25   
328591.28 330385.52 328515.99 321378.42 288315.97 241352.99 194378.18 146175.41 96411.35 72568.03 
 41884.36 28614.34 15423.85 11595.23 7766.60  3937.98  144.94   102.03   73.61    62.13    
 53.29    45.40    39.10    34.49    30.59    27.02    24.31    22.20    20.80    19.66    
 19.22    18.71    18.18    17.45    16.08    13.65    11.69    10.51    9.56     8.60     
 7.83     7.30     7.27     8.09     8.49     8.41     8.32     8.07     7.69     7.34     
 6.92     6.70     6.44     6.16     5.93     5.63     5.43     5.27     5.09     4.88     
 4.71     4.57     4.33     4.20     4.09     3.92     3.79     3.70     3.60     3.47     
 3.35     3.26     3.20     3.09     3.02     2.97     2.96     2.93     2.93     2.94     
 2.95     2.98     3.00     3.04     3.10     3.15     3.22     3.28     3.34     3.43     
 3.53     3.62     3.71     3.82     3.95     4.08     4.20     4.36     4.55     4.76     
 5.00     5.26     5.53     5.85     6.19     6.52     6.87     7.23     7.59     7.95     
 8.31     8.67     9.03     9.39     9.75     10.15    10.58    11.03    11.49    11.98    
 12.48    13.00    13.56    14.11    14.67    15.26    15.88    16.53    17.20    17.88    
 18.62    19.41    20.26    21.17    22.23    23.45    24.96    26.69    28.72    31.03    
 33.78    36.78    40.21    44.11    48.42    53.53    59.17    65.50    72.76    81.14    
 91.01    101.70   114.45   127.20   141.15   155.78   171.19   186.60   202.56   218.40   
 233.88   248.15   260.98   271.91   280.58   286.69   290.18   291.29   290.14   286.97   
 281.85   275.69   267.37   257.44   245.58   233.45   220.25   206.43   191.75   176.25   
 160.25   
328591.28 329619.01 326920.08 319114.16 282298.95 233644.83 187681.65 135912.00 103810.23 71948.70 
 40087.18 20938.15 11121.39 7577.31  4100.61  623.91   494.92   337.95   144.87   95.29    
 47.48    35.25    27.93    22.72    19.04    16.45    14.31    12.61    11.40    10.33    
 9.61     9.88     10.14    10.21    9.56     8.91     8.40     7.42     6.57     5.88     
 5.64     5.47     5.16     4.99     4.75     4.61     4.64     4.73     4.41     4.06     
 3.94     3.84     3.83     3.83     3.95     4.04     3.95     3.86     3.85     3.85     
 3.84     3.83     3.82     3.82     3.81     3.80     3.78     3.76     3.73     3.73     
 3.73     3.72     3.72     3.71     3.71     3.71     3.71     3.71     3.71     3.72     
 3.72     3.72     3.71     3.75     3.98     4.21     4.34     4.46     4.50     4.55     
 4.61     4.69     4.75     4.77     4.77     4.79     4.88     5.00     5.16     5.36     
 5.58     5.85     6.16     6.49     6.86     7.24     7.63     8.00     8.36     8.71     
 9.06     9.40     9.72     10.05    10.41    10.79    11.20    11.65    12.14    12.64    
 13.18    13.73    14.34    14.97    15.60    16.27    16.99    17.76    18.55    19.37    
 20.23    21.09    21.98    22.93    23.93    25.04    26.38    27.97    29.92    32.16    
 34.76    37.77    41.18    45.03    49.35    54.18    59.71    66.27    73.67    82.32    
 92.30    103.64   116.54   130.59   145.80   161.58   177.78   194.48   211.11   227.37   
 243.56   259.75   273.07   284.10   292.40   297.68   299.96   299.22   295.79   290.10   
 282.63   273.34   262.83   251.40   239.46   226.99   214.36   201.63   188.56   174.50   
 160.25   
