IESNA:LM-63-2002
[TEST] 1
[TESTLAB] AOK
[TESTDATE] 2022-05-14
[ISSUEDATE] 2022-05-14 20:54:18
[NEARFIELD] 
[LAMPPOSITION] 0,0
[OTHER] EVERFINE GO-2000A_V1 SYSTEM
[MANUFAC] AOK
[LUMCAT] A
[LUMINAIRE] AOK-400WiSF-NVY-S5-00-5070-3585D-P
[LAMPCAT] B
[LAMP] 5050
[BALLAST] E
[BALLASTCAT] F
[OTHER] 
[OTHER] Gamma(deg)    Fz(lm)      Ft(lm)     %Lum    %Lamp
[OTHER]   0- 10      3939.54     3939.54     7.58     7.58
[OTHER]  10- 20      8475.54    12415.08    23.88    23.88
[OTHER]  20- 30      9915.36    22330.43    42.96    42.96
[OTHER]  30- 40      9870.90    32201.33    61.95    61.95
[OTHER]  40- 50      8180.09    40381.42    77.68    77.68
[OTHER]  50- 60      5867.24    46248.66    88.97    88.97
[OTHER]  60- 70      3360.97    49609.63    95.44    95.44
[OTHER]  70- 80      1417.43    51027.06    98.16    98.16
[OTHER]  80- 90       448.62    51475.68    99.03    99.03
[OTHER]  90-100       176.84    51652.52    99.37    99.37
[OTHER] 100-110        92.82    51745.33    99.55    99.55
[OTHER] 110-120        67.00    51812.33    99.68    99.68
[OTHER] 120-130        52.40    51864.74    99.78    99.78
[OTHER] 130-140        41.02    51905.76    99.86    99.86
[OTHER] 140-150        32.07    51937.83    99.92    99.92
[OTHER] 150-160        23.94    51961.77    99.96    99.96
[OTHER] 160-170        14.33    51976.10    99.99    99.99
[OTHER] 170-180         4.93    51981.03   100.00   100.00
[OTHER] 
TILT=NONE
1 51981 1 181 25 1 2 0.150 0.200 0.000
1.000 1 393.478
0.0    1.0    2.0    3.0    4.0    5.0    6.0    7.0    8.0    9.0    
 10.0   11.0   12.0   13.0   14.0   15.0   16.0   17.0   18.0   19.0   
 20.0   21.0   22.0   23.0   24.0   25.0   26.0   27.0   28.0   29.0   
 30.0   31.0   32.0   33.0   34.0   35.0   36.0   37.0   38.0   39.0   
 40.0   41.0   42.0   43.0   44.0   45.0   46.0   47.0   48.0   49.0   
 50.0   51.0   52.0   53.0   54.0   55.0   56.0   57.0   58.0   59.0   
 60.0   61.0   62.0   63.0   64.0   65.0   66.0   67.0   68.0   69.0   
 70.0   71.0   72.0   73.0   74.0   75.0   76.0   77.0   78.0   79.0   
 80.0   81.0   82.0   83.0   84.0   85.0   86.0   87.0   88.0   89.0   
 90.0   91.0   92.0   93.0   94.0   95.0   96.0   97.0   98.0   99.0   
 100.0  101.0  102.0  103.0  104.0  105.0  106.0  107.0  108.0  109.0  
 110.0  111.0  112.0  113.0  114.0  115.0  116.0  117.0  118.0  119.0  
 120.0  121.0  122.0  123.0  124.0  125.0  126.0  127.0  128.0  129.0  
 130.0  131.0  132.0  133.0  134.0  135.0  136.0  137.0  138.0  139.0  
 140.0  141.0  142.0  143.0  144.0  145.0  146.0  147.0  148.0  149.0  
 150.0  151.0  152.0  153.0  154.0  155.0  156.0  157.0  158.0  159.0  
 160.0  161.0  162.0  163.0  164.0  165.0  166.0  167.0  168.0  169.0  
 170.0  171.0  172.0  173.0  174.0  175.0  176.0  177.0  178.0  179.0  
 180.0  
0.0    15.0   30.0   45.0   60.0   75.0   90.0   105.0  120.0  135.0  
 150.0  165.0  180.0  195.0  210.0  225.0  240.0  255.0  270.0  285.0  
 300.0  315.0  330.0  345.0  360.0  
43662.82 42353.21 41582.26 38445.80 32382.19 28364.77 24297.85 18738.23 15543.57 11823.08 
 8095.97  4368.86  2249.48  148.06   81.62    36.90    26.52    20.74    17.12    14.90    
 12.97    11.41    10.51    9.78     9.15     8.47     7.87     7.41     7.07     7.01     
 6.81     6.38     5.75     5.22     5.07     4.93     4.92     4.74     4.72     4.68     
 4.61     4.36     4.25     4.21     4.18     4.16     4.12     4.03     3.89     3.75     
 3.68     3.57     3.52     3.45     3.36     3.25     3.15     3.04     2.96     2.93     
 2.92     2.87     2.82     2.77     2.69     2.60     2.52     2.47     2.43     2.40     
 2.37     2.34     2.31     2.29     2.28     2.28     2.28     2.29     2.34     2.40     
 2.46     2.53     2.63     2.79     2.96     3.08     3.21     3.34     3.47     3.61     
 3.76     3.94     4.12     4.29     4.48     4.69     4.93     5.19     5.52     5.88     
 6.27     6.70     7.17     7.67     8.17     8.73     9.31     9.90     10.53    11.18    
 11.85    12.56    13.28    14.00    14.76    15.53    16.32    17.15    18.03    18.96    
 19.92    20.93    22.03    23.20    24.40    25.66    27.00    28.39    29.79    31.22    
 32.65    34.12    35.61    37.10    38.56    40.01    41.48    42.93    44.39    45.87    
 47.36    48.93    50.60    52.36    54.17    56.07    58.02    60.04    62.16    64.41    
 66.73    69.06    71.35    73.65    75.89    77.96    79.81    81.45    82.99    84.26    
 85.34    86.13    86.61    86.71    86.41    85.71    84.57    82.97    81.02    78.82    
 76.34    73.61    70.84    67.89    64.97    61.97    58.98    55.98    52.93    49.72    
 45.73    
43662.82 42191.47 41368.72 40639.40 34126.25 30124.54 26020.92 21917.31 17810.16 13242.94 
 10113.72 6781.40  3628.35  500.64   271.02   198.58   126.69   111.82   109.45   111.68   
 86.29    62.45    77.68    77.62    58.67    45.68    33.13    29.66    22.52    17.62    
 14.84    13.04    11.65    10.36    9.01     8.42     8.29     8.04     7.84     7.68     
 7.39     7.05     6.75     6.36     5.95     5.64     5.41     5.11     4.83     4.59     
 4.33     4.09     3.85     3.64     3.42     3.21     3.03     2.89     2.77     2.65     
 2.57     2.47     2.38     2.30     2.24     2.20     2.17     2.12     2.09     2.04     
 2.01     1.97     1.96     1.96     1.96     1.96     1.98     2.00     2.04     2.08     
 2.14     2.21     2.29     2.39     2.49     2.61     2.72     2.85     2.99     3.16     
 3.34     3.52     3.72     3.94     4.20     4.48     4.77     5.09     5.46     5.86     
 6.29     6.77     7.27     7.77     8.30     8.85     9.45     10.03    10.65    11.29    
 11.97    12.69    13.43    14.12    14.89    15.70    16.55    17.43    18.37    19.34    
 20.35    21.43    22.57    23.77    25.00    26.24    27.55    28.91    30.28    31.67    
 33.01    34.39    35.78    37.12    38.40    39.71    41.05    42.38    43.70    45.09    
 46.60    48.16    49.79    51.51    53.29    55.14    57.07    59.09    61.17    63.38    
 65.64    67.93    70.13    72.27    74.34    76.19    77.88    79.34    80.65    81.78    
 82.72    83.39    83.74    83.75    83.36    82.56    81.44    79.90    78.06    76.04    
 73.83    71.58    69.28    66.89    64.47    62.03    59.42    56.73    53.89    50.96    
 45.73    
43662.82 42234.26 41462.85 40996.33 37624.51 32311.99 29171.39 25816.02 20399.53 17392.33 
 13329.77 10235.23 7151.88  4962.07  1110.81  733.13   391.84   260.87   229.23   177.28   
 159.62   150.92   137.70   117.26   96.75    90.59    74.47    80.95    70.67    62.56    
 57.76    50.36    49.41    44.21    42.91    35.02    32.04    34.73    31.52    31.83    
 28.96    32.76    30.91    29.48    26.99    27.71    24.76    21.37    21.19    18.49    
 17.32    12.87    10.37    9.29     8.83     8.33     7.58     6.79     6.00     5.18     
 4.58     4.15     3.87     3.58     3.24     2.91     2.61     2.40     2.25     2.14     
 2.07     2.02     1.98     1.96     1.94     1.93     1.92     1.92     1.92     1.94     
 2.00     2.07     2.16     2.27     2.40     2.54     2.70     2.88     3.07     3.29     
 3.53     3.80     4.09     4.41     4.77     5.15     5.56     5.99     6.46     6.94     
 7.43     7.92     8.46     9.04     9.63     10.26    10.92    11.59    12.31    13.05    
 13.81    14.62    15.46    16.32    17.22    18.15    19.13    20.10    21.14    22.22    
 23.31    24.44    25.59    26.74    27.86    29.00    30.14    31.31    32.44    33.58    
 34.73    35.90    37.11    38.35    39.61    40.92    42.32    43.79    45.33    46.92    
 48.55    50.21    51.97    53.84    55.77    57.74    59.73    61.76    63.79    65.79    
 67.76    69.64    71.42    73.09    74.64    76.02    77.28    78.44    79.45    80.24    
 80.77    81.03    81.02    80.74    80.18    79.35    78.27    76.95    75.52    73.94    
 72.25    70.47    68.60    66.65    64.72    62.75    60.74    58.67    56.54    54.29    
 45.73    
43662.82 42202.88 41490.68 40946.46 40579.37 38451.80 33257.22 30047.69 26838.91 23594.69 
 20348.21 16833.26 15223.53 11226.23 9438.88  6692.19  4732.75  2773.31  831.06   610.12   
 453.00   371.43   309.81   248.19   186.88   161.23   122.61   92.96    77.56    67.79    
 59.77    54.34    50.33    47.33    44.25    41.14    38.75    35.98    33.82    31.41    
 29.26    26.37    24.01    22.10    20.95    20.20    19.76    19.06    18.25    17.29    
 16.31    15.12    13.86    12.48    11.49    10.66    10.00    9.33     8.67     8.04     
 7.43     6.82     6.33     5.88     5.49     5.15     4.80     4.43     4.06     3.71     
 3.37     3.09     2.84     2.63     2.46     2.31     2.19     2.11     2.10     2.10     
 2.11     2.17     2.26     2.39     2.55     2.74     2.96     3.19     3.45     3.74     
 4.05     4.39     4.76     5.14     5.55     5.98     6.45     6.93     7.44     7.97     
 8.51     9.06     9.66     10.29    10.97    11.65    12.37    13.13    13.89    14.69    
 15.52    16.40    17.29    18.18    19.14    20.11    21.11    22.13    23.12    24.13    
 25.18    26.27    27.40    28.53    29.65    30.81    32.03    33.29    34.56    35.88    
 37.22    38.60    40.03    41.47    42.95    44.47    46.06    47.65    49.25    50.91    
 52.64    54.31    55.98    57.65    59.30    60.96    62.57    64.13    65.60    67.04    
 68.42    69.70    70.92    72.11    73.14    74.05    74.80    75.40    75.85    76.15    
 76.29    76.25    76.05    75.65    75.15    74.52    73.80    72.96    72.03    71.05    
 69.97    68.82    67.63    66.40    65.10    63.77    62.35    60.91    59.36    57.71    
 45.73    
43662.82 42630.48 41920.88 41518.05 40888.05 40127.16 39098.54 38020.56 34615.37 30664.28 
 28766.37 26543.42 23967.34 22442.75 19697.45 16478.25 14902.26 13193.23 11259.36 9322.71  
 7386.06  5734.77  4766.90  2920.47  1300.61  979.62   672.54   494.70   378.71   286.66   
 221.25   182.61   159.02   138.87   123.66   108.50   93.34    81.24    71.28    62.69    
 54.72    48.09    42.67    38.15    34.12    29.63    26.66    24.06    21.50    19.55    
 17.87    15.96    14.04    12.76    11.90    11.32    10.71    10.16    9.54     9.01     
 8.45     7.96     7.47     7.05     6.64     6.28     5.98     5.70     5.45     5.23     
 5.03     4.81     4.57     4.31     4.09     3.86     3.62     3.40     3.18     2.97     
 2.78     2.64     2.61     2.71     2.90     3.11     3.35     3.61     3.89     4.20     
 4.54     4.91     5.30     5.71     6.16     6.64     7.12     7.66     8.25     8.86     
 9.51     10.19    10.91    11.66    12.46    13.27    14.12    15.00    15.92    16.86    
 17.80    18.76    19.78    20.83    21.92    23.02    24.16    25.31    26.54    27.77    
 29.01    30.30    31.63    32.96    34.33    35.69    37.11    38.56    39.99    41.42    
 42.86    44.29    45.76    47.22    48.65    50.08    51.54    52.99    54.44    55.87    
 57.24    58.59    59.95    61.28    62.55    63.77    64.91    65.97    66.95    67.84    
 68.67    69.40    70.08    70.65    71.17    71.58    71.89    72.12    72.28    72.39    
 72.43    72.42    72.35    72.22    72.03    71.81    71.56    71.30    70.92    70.41    
 69.79    69.12    68.43    67.71    66.97    66.20    65.29    64.33    63.30    62.17    
 45.73    
43662.82 43246.48 42826.53 42426.60 41706.60 41074.03 40401.34 39914.17 38896.76 38050.29 
 37400.78 36513.32 35982.54 35130.51 33811.69 31583.09 30113.20 27703.74 26056.66 24680.96 
 23370.21 22056.00 20310.22 19013.39 17639.83 16393.49 14558.45 12851.95 11270.02 9964.45  
 9088.64  7977.91  6742.27  5603.55  4753.02  4154.46  3477.30  2937.21  2397.12  1857.59  
 1378.08  1012.79  777.31   634.54   478.25   328.10   259.90   191.96   153.78   125.20   
 103.18   87.12    72.29    62.87    53.36    45.89    40.26    35.29    30.85    26.94    
 24.29    21.79    18.97    17.13    15.38    14.16    12.79    11.27    10.40    10.00    
 9.66     9.34     8.90     8.57     8.22     7.94     7.69     7.45     7.19     6.71     
 6.10     5.21     4.15     2.86     2.43     2.57     2.76     2.96     3.19     3.44     
 3.71     4.00     4.33     4.69     5.08     5.48     5.96     6.44     6.94     7.49     
 8.08     8.68     9.30     9.97     10.68    11.43    12.24    13.05    13.89    14.82    
 15.78    16.79    17.79    18.81    19.87    20.98    22.10    23.26    24.41    25.55    
 26.76    28.02    29.31    30.61    31.87    33.17    34.56    35.96    37.35    38.73    
 40.11    41.46    42.85    44.21    45.53    46.83    48.16    49.45    50.69    51.94    
 53.17    54.35    55.49    56.60    57.69    58.77    59.77    60.76    61.70    62.62    
 63.50    64.32    65.09    65.82    66.49    67.12    67.71    68.24    68.75    69.21    
 69.64    70.03    70.38    70.75    71.12    71.50    71.82    72.04    72.13    71.94    
 71.72    71.45    71.15    70.75    70.33    69.84    69.28    68.61    67.94    67.13    
 45.73    
43662.82 43877.27 44123.08 44312.52 44125.26 43817.17 43423.36 43188.21 42573.24 42092.41 
 41599.16 41066.61 40593.80 40103.83 39510.53 38961.98 38480.40 37925.23 37231.22 36599.15 
 36005.13 35391.77 34837.52 34204.44 33313.27 32556.85 31713.12 30912.71 30064.76 29245.23 
 28462.14 27522.69 26364.75 25339.87 24420.68 23502.15 22638.40 21523.77 20650.35 19481.16 
 18507.78 17662.46 16540.23 15637.89 14678.46 13761.81 12866.24 12008.63 11108.36 10296.54 
 9436.37  8594.12  7858.42  7201.05  6556.65  5889.79  5282.55  4755.47  4260.52  3778.69  
 3346.42  2995.93  2649.57  2304.07  2026.46  1779.12  1527.97  1325.10  1136.54  968.24   
 818.46   686.95   571.00   466.71   381.90   312.12   255.35   198.74   157.29   122.16   
 93.09    71.88    56.00    42.42    28.27    6.73     3.93     2.16     1.63     1.50     
 1.47     1.40     1.10     1.11     1.14     1.18     1.23     1.28     1.34     1.41     
 1.49     1.55     1.65     1.74     1.83     1.95     2.07     2.20     2.34     2.49     
 2.65     2.81     2.99     3.18     3.38     3.56     3.77     3.99     4.22     4.47     
 4.72     4.99     5.27     5.56     5.84     6.15     6.47     6.80     7.13     7.47     
 7.83     8.19     8.60     8.98     9.36     9.73     10.13    10.56    10.99    11.44    
 11.91    12.38    12.86    13.38    13.93    14.55    15.17    15.79    16.47    17.15    
 17.81    18.50    19.25    20.05    20.93    21.82    22.80    23.93    25.17    26.43    
 27.77    29.16    30.62    32.20    33.75    35.38    37.16    38.82    40.45    42.09    
 43.68    45.28    46.87    48.38    49.80    51.10    52.38    53.50    54.64    55.82    
 45.73    
43662.82 44263.38 44978.35 45806.59 46306.55 46718.58 46958.90 47329.72 47409.30 47742.65 
 47877.90 47907.11 48083.83 48245.73 48307.19 48363.84 48300.20 48335.61 48227.80 47974.35 
 47671.46 47187.74 46521.96 45906.76 45179.67 44539.95 43925.00 43083.71 42026.19 40922.48 
 39626.02 38287.66 36908.85 35653.98 34460.35 33311.35 32082.47 30985.39 29960.37 28885.05 
 27761.15 26797.04 25834.45 24739.59 23743.77 22728.77 21733.66 20794.89 19816.44 18809.57 
 17921.36 16983.53 16029.19 15186.89 14409.76 13589.12 12796.16 12063.60 11408.93 10754.89 
 10074.06 9403.00  8751.71  8138.78  7567.65  6970.51  6430.01  5940.84  5410.63  4910.17  
 4433.96  4005.54  3613.15  3220.77  2844.63  2519.83  2259.29  1998.12  1764.59  1549.18  
 1373.37  1223.91  1094.17  964.57   859.75   766.54   688.92   624.43   563.05   505.10   
 455.72   406.28   358.81   320.86   287.11   256.79   230.93   209.08   189.51   171.52   
 156.93   143.85   131.48   121.41   111.35   103.47   96.71    90.21    85.07    80.63    
 76.36    72.62    69.34    65.96    62.75    59.86    56.83    54.23    51.63    49.31    
 47.08    44.53    42.62    40.47    38.43    36.24    33.61    31.11    28.60    25.38    
 22.36    19.89    16.42    13.33    11.01    9.43     8.10     7.28     7.10     7.34     
 7.73     8.14     8.55     8.98     9.41     9.84     10.28    10.71    11.16    11.60    
 12.06    12.52    12.99    13.50    14.05    14.62    15.26    15.96    16.72    17.56    
 18.49    19.55    20.72    22.02    23.43    25.02    26.73    28.40    30.20    31.96    
 33.80    35.78    37.72    39.58    41.47    43.31    45.15    46.92    48.73    50.66    
 45.73    
43662.82 44700.88 46107.21 47464.21 48714.70 49771.76 50735.16 51573.57 52346.49 53181.40 
 53985.03 54487.27 54574.20 54458.51 54147.48 53242.08 51895.67 50524.29 49399.03 48418.67 
 47255.64 46149.69 45128.06 44113.19 42987.12 41952.72 40874.10 39784.98 38819.68 37826.22 
 36823.49 35821.75 34792.06 33772.82 32609.42 31465.07 30234.03 29131.03 28012.79 26958.88 
 25926.09 24979.23 24033.05 23153.99 22362.37 21533.41 20747.99 19966.17 19214.60 18444.15 
 17725.60 17066.96 16392.56 15628.80 14892.85 14213.86 13574.69 12932.60 12318.99 11638.21 
 10981.04 10328.65 9702.26  9142.13  8654.36  8207.10  7752.45  7253.12  6722.33  6213.78  
 5731.12  5272.63  4831.62  4392.39  3964.84  3529.43  3045.73  2687.17  2329.51  2055.59  
 1792.65  1492.82  1293.11  1120.23  973.69   857.72   764.31   693.56   637.09   588.22   
 542.06   495.41   451.93   410.58   374.62   343.91   316.64   292.56   271.28   253.28   
 235.28   217.34   204.00   191.93   180.87   171.44   162.87   155.18   148.11   141.95   
 136.40   131.48   126.75   121.96   117.76   113.76   109.90   106.24   102.59   99.17    
 95.93    92.75    89.86    87.01    84.15    81.27    78.49    75.45    72.59    69.79    
 67.04    64.54    61.69    59.13    56.71    54.39    51.94    49.46    46.74    44.17    
 41.68    38.78    35.41    32.68    30.09    25.05    22.56    21.23    18.86    10.24    
 8.45     7.98     8.14     8.55     9.02     9.51     10.03    10.58    11.17    11.86    
 12.65    13.48    14.36    15.34    16.40    17.63    18.96    20.47    22.07    23.81    
 25.84    27.78    29.88    31.97    34.15    36.39    38.67    41.12    43.81    46.63    
 45.73    
43662.82 45311.39 47198.84 48923.58 50715.29 52354.45 54000.95 55359.02 56253.38 56862.79 
 56559.34 55269.13 53930.35 52848.07 51751.82 50603.25 49649.65 48767.00 47712.75 46480.49 
 45242.55 43896.32 42513.01 40956.89 39303.00 37820.91 36376.33 35108.17 33849.88 32683.83 
 31658.95 30871.91 30343.66 29926.01 29549.42 29137.06 28756.51 28368.20 27960.84 27492.16 
 26902.67 26179.76 25407.49 24654.81 23938.42 23226.34 22422.02 21484.50 20537.88 19619.30 
 18743.48 17885.63 17064.01 16294.85 15526.17 14809.63 14133.66 13429.95 12709.95 11893.48 
 11230.40 10568.50 9943.91  9314.81  8702.33  8083.10  7496.32  6909.02  6301.78  5609.76  
 4996.80  4467.91  4032.45  3621.26  3232.65  2881.22  2560.63  2183.00  1923.99  1699.77  
 1494.96  1301.69  1166.77  1032.29  897.81   809.22   731.80   664.59   605.92   560.76   
 518.18   477.01   439.62   402.93   370.39   341.00   316.62   296.71   279.77   264.30   
 250.82   238.84   228.45   219.17   210.16   201.98   194.49   187.68   181.58   175.66   
 170.01   164.66   159.50   154.77   150.44   146.24   142.31   138.57   134.81   131.32   
 127.71   124.10   120.71   117.17   113.40   110.12   106.83   103.47   100.12   96.82    
 93.60    90.54    87.60    84.75    81.87    78.99    76.17    73.39    70.59    67.76    
 65.02    62.17    59.03    56.37    53.92    51.72    49.55    47.24    44.10    40.19    
 37.46    33.44    31.29    29.81    27.30    26.19    24.84    14.15    12.20    11.49    
 11.25    11.03    10.90    11.64    12.55    13.60    14.73    15.91    17.20    18.69    
 20.37    22.23    24.21    26.31    28.65    30.94    33.39    36.12    39.20    42.75    
 45.73    
43662.82 45674.63 47833.91 49925.53 52052.94 54158.25 56084.53 57139.63 57658.42 56744.20 
 55225.89 54216.63 53196.81 52305.45 51430.73 50265.53 48926.47 47446.73 45602.11 43705.24 
 41677.04 39859.37 38228.30 36795.77 35556.29 34729.25 34224.30 33854.82 33428.68 32953.68 
 32412.45 31905.62 31374.80 30851.62 30288.18 29351.79 28394.74 27385.25 26343.55 25288.88 
 24234.21 23179.53 22125.26 21186.01 20358.31 19621.00 18933.64 18244.33 17491.25 16738.07 
 16010.19 15292.78 14568.67 13829.25 13101.57 12405.04 11732.46 11057.56 10393.12 9755.35  
 9175.37  8605.72  8018.17  7393.21  6699.21  6093.05  5628.14  5178.08  4748.65  4347.57  
 3974.44  3629.37  3321.26  3015.27  2716.53  2418.48  2188.92  1972.33  1770.23  1560.19  
 1395.94  1234.95  1105.23  980.59   885.89   798.91   724.67   658.65   603.50   558.01   
 518.76   481.82   444.05   406.96   372.04   342.80   316.81   295.75   277.88   264.15   
 252.66   242.40   232.17   224.38   217.40   211.14   205.57   200.38   195.64   191.00   
 186.59   182.34   178.10   174.16   170.12   166.41   162.07   157.27   152.46   147.63   
 142.88   138.21   133.78   129.49   125.62   122.21   118.99   116.37   113.25   110.16   
 106.94   103.89   100.57   97.79    95.26    92.66    89.85    86.90    84.32    80.91    
 77.06    73.11    68.69    64.64    61.83    59.18    57.40    55.82    55.03    52.92    
 51.16    49.69    47.59    44.80    41.68    39.52    37.34    34.93    32.51    31.00    
 28.48    13.60    11.68    11.72    11.86    12.19    13.11    14.31    15.58    16.93    
 18.26    19.78    21.47    23.30    25.36    27.82    30.31    33.05    36.35    40.20    
 45.73    
43662.82 46077.17 48376.92 50711.62 52946.71 55194.89 56640.04 57355.52 56313.12 54959.11 
 53829.86 52962.08 52328.08 51440.45 50047.45 48366.81 46377.74 44325.17 42192.25 40269.94 
 38788.44 37354.85 36408.58 35781.92 35337.60 34922.72 34404.19 33918.15 33359.29 32803.68 
 32148.42 31312.71 30215.99 29057.07 27917.60 26874.12 25823.44 24708.78 23584.70 22505.33 
 21430.39 20315.62 19200.47 18372.57 17746.81 17182.68 16647.02 16111.58 15516.23 14884.45 
 14242.15 13566.14 12889.80 12225.43 11622.88 11020.90 10418.92 9888.58  9355.19  8789.38  
 8115.58  7399.97  6821.52  6364.49  5931.66  5476.81  5060.19  4672.63  4294.63  3938.57  
 3619.13  3273.66  2948.31  2699.82  2469.06  2249.79  2033.46  1810.28  1612.94  1455.07  
 1302.39  1183.26  1064.39  945.52   854.68   775.52   706.75   642.64   589.03   546.70   
 509.27   473.92   437.29   401.82   366.06   334.69   306.41   282.47   264.61   247.91   
 236.57   226.80   218.92   212.40   206.38   201.06   196.19   191.75   187.79   183.44   
 179.22   175.44   171.92   168.54   165.37   162.21   158.78   155.45   151.98   148.43   
 144.61   141.17   137.83   134.06   130.72   126.98   123.23   119.86   116.62   113.33   
 110.24   107.28   104.29   101.32   98.56    95.86    93.36    87.42    84.67    82.93    
 81.13    79.11    77.11    74.41    71.53    68.77    66.09    63.58    60.99    58.53    
 55.63    52.92    50.68    48.81    46.91    44.91    41.91    39.96    38.42    36.35    
 32.29    29.29    25.62    12.27    12.40    13.12    13.87    15.01    16.48    17.98    
 19.47    20.90    22.42    24.04    25.88    28.31    30.82    33.55    36.80    40.53    
 45.73    
43662.82 46117.81 48414.34 50781.83 53089.47 55372.53 56622.02 56965.87 55550.84 54408.02 
 53363.92 52604.25 51978.66 50874.91 49399.93 47504.34 45388.17 43136.49 41187.62 39590.52 
 38139.54 36977.24 36347.40 35944.96 35568.53 35029.26 34525.19 33969.05 33384.41 32745.36 
 31891.16 30770.71 29575.77 28496.47 27425.41 26376.76 25197.92 24019.09 22838.74 21534.84 
 20282.63 19261.41 18561.54 17974.88 17433.10 16930.71 16411.75 15854.15 15236.93 14596.01 
 13963.01 13318.79 12679.75 12036.25 11376.86 10757.59 10224.56 9709.61  9150.13  8508.82  
 7808.55  7140.96  6670.11  6192.93  5757.74  5369.07  4944.55  4568.06  4188.00  3850.41  
 3518.29  3137.94  2874.57  2643.07  2411.77  2196.18  1972.12  1752.24  1573.67  1422.82  
 1272.91  1145.12  1025.52  925.37   834.40   752.76   684.87   622.49   568.18   524.75   
 488.94   454.83   420.64   384.07   351.41   319.12   291.33   266.43   247.23   228.09   
 215.20   205.71   198.26   192.16   187.16   182.61   178.61   174.76   171.45   168.10   
 164.77   161.39   158.20   155.24   152.63   150.28   147.84   145.54   143.25   140.94   
 138.49   135.25   132.52   129.68   126.67   123.77   120.86   117.92   115.09   112.28   
 109.57   106.92   104.30   101.69   98.97    96.38    93.73    91.05    85.40    82.28    
 80.13    78.27    76.60    74.61    72.32    69.71    67.18    64.78    62.41    60.09    
 57.86    55.06    52.86    50.88    49.24    47.48    45.70    44.00    42.19    40.57    
 38.68    33.11    28.82    17.51    13.23    13.98    14.81    16.41    18.12    19.93    
 21.71    23.41    25.09    26.74    28.38    30.57    32.88    35.41    38.55    42.21    
 45.73    
43662.82 46000.37 48226.62 50447.95 52653.45 54758.25 55988.98 56170.16 54807.16 53694.10 
 52839.92 52043.28 51531.36 50536.11 49228.85 47492.47 45485.66 43368.93 41397.01 39659.17 
 38156.26 36821.21 36083.56 35564.25 35145.45 34719.57 34269.92 33813.42 33292.58 32739.55 
 32115.23 31257.52 30133.33 28975.18 27875.97 26824.64 25738.15 24572.38 23420.99 22286.29 
 21139.92 19977.67 18909.93 18166.56 17532.67 17006.29 16476.88 15923.73 15342.75 14722.03 
 14102.71 13446.24 12785.46 12156.19 11566.01 10976.17 10386.34 9876.78  9367.09  8810.15  
 8145.50  7440.69  6855.15  6393.50  5947.03  5521.09  5119.74  4725.00  4347.93  3987.82  
 3672.68  3355.90  3011.61  2742.09  2511.69  2289.25  2077.69  1864.22  1655.94  1493.72  
 1343.10  1209.39  1094.29  979.32   888.49   805.30   734.23   669.48   613.36   567.99   
 529.69   492.02   454.87   418.71   383.21   350.30   320.85   294.97   274.54   256.23   
 241.60   230.01   220.83   213.04   205.65   198.87   192.88   187.62   182.92   177.92   
 172.97   168.71   164.79   161.18   157.79   154.71   151.71   148.50   145.46   142.33   
 138.82   135.77   132.86   129.86   126.51   123.16   120.13   117.03   114.09   111.18   
 108.44   105.70   102.66   99.81    97.09    94.39    91.85    86.58    83.86    81.66    
 79.41    77.38    75.11    72.88    70.49    68.07    65.96    63.73    61.51    59.00    
 56.21    54.20    52.33    50.34    48.58    46.19    44.12    42.64    41.26    40.12    
 36.26    34.34    26.28    15.91    16.39    17.21    18.74    20.61    22.51    24.41    
 26.17    27.89    29.60    31.23    32.91    35.00    36.99    39.12    41.68    44.66    
 45.73    
43662.82 45701.38 47650.38 49641.93 51591.23 53601.29 55136.56 55924.95 55798.54 54522.44 
 53539.64 52499.45 51588.63 51029.89 50097.41 49008.45 47598.38 45849.90 43945.09 42049.67 
 40190.32 38525.99 37142.02 35956.95 35045.57 34437.83 34013.46 33538.84 33114.93 32679.16 
 32232.78 31777.09 31297.76 30804.54 30112.77 29181.05 28159.10 27121.35 26071.42 24985.99 
 23900.56 22815.26 21744.48 20787.98 19930.20 19164.12 18357.36 17570.62 16833.51 16165.99 
 15510.99 14873.38 14199.21 13518.80 12822.85 12148.89 11487.35 10835.18 10204.44 9608.61  
 9043.87  8491.33  7930.73  7358.83  6709.95  6115.75  5636.28  5223.09  4803.94  4385.36  
 4016.45  3686.75  3384.23  3097.15  2808.89  2520.64  2233.09  2012.99  1809.33  1615.59  
 1429.74  1275.98  1136.06  1017.94  912.53   825.21   744.96   678.32   618.09   568.00   
 530.23   494.00   457.27   420.71   385.54   355.23   327.47   302.80   282.39   263.47   
 250.39   237.31   224.27   214.85   206.10   197.99   190.48   183.47   177.03   171.21   
 165.90   160.63   155.93   151.45   147.52   143.69   140.15   136.58   132.64   128.94   
 125.21   121.25   117.89   114.78   111.86   108.93   106.11   103.50   101.05   98.17    
 95.55    93.19    90.89    88.13    85.81    83.62    81.21    78.90    76.51    74.49    
 72.18    69.39    66.09    62.86    58.88    56.07    54.15    52.60    51.35    50.95    
 50.60    49.13    47.61    44.83    43.03    41.43    39.87    38.04    35.56    34.69    
 28.94    18.96    18.96    19.75    21.00    22.85    24.83    26.79    28.70    30.54    
 32.25    33.96    35.64    37.27    39.40    41.37    43.16    45.04    47.14    49.45    
 45.73    
43662.82 45249.04 46840.13 48466.07 50034.23 51721.24 53359.64 54340.90 54995.17 55016.51 
 53856.99 52872.65 51820.28 50806.02 49842.37 48995.23 48128.11 47061.55 45973.69 44731.11 
 43293.85 41789.12 40287.66 38677.95 37036.39 35680.89 34405.06 33279.99 32245.64 31358.96 
 30763.45 30329.10 29927.14 29587.32 29248.04 28935.83 28596.76 28226.52 27857.05 27432.52 
 26868.41 26102.07 25353.13 24619.83 23909.86 23130.50 22219.04 21232.98 20257.94 19337.17 
 18442.49 17615.07 16830.80 16089.44 15363.94 14692.69 14056.73 13386.25 12676.80 11963.17 
 11289.31 10615.75 9942.20  9309.65  8700.60  8094.90  7510.78  6944.89  6356.41  5738.73  
 5120.81  4566.83  4113.47  3690.95  3305.52  2961.58  2646.62  2329.57  2000.36  1773.35  
 1577.80  1394.26  1212.79  1082.29  952.17   845.95   760.03   686.88   628.09   574.76   
 531.51   492.70   454.77   419.97   383.72   352.14   324.14   299.38   278.07   259.15   
 242.70   228.00   215.21   203.79   193.44   183.14   174.26   166.46   159.47   153.00   
 147.29   142.09   136.94   131.83   127.31   123.31   119.30   116.02   112.93   109.69   
 106.81   104.04   101.19   98.44    95.68    93.13    90.43    87.95    85.53    83.22    
 80.89    78.40    76.11    73.69    71.31    69.19    67.00    64.83    62.63    60.60    
 58.26    55.94    53.60    51.12    48.95    46.80    45.26    43.29    40.92    39.05    
 36.97    35.40    33.29    30.56    30.25    30.04    22.52    20.51    21.16    21.82    
 22.50    23.96    25.71    27.53    29.32    31.07    32.78    34.39    35.98    37.51    
 39.01    40.47    42.36    44.13    45.84    47.39    49.01    50.73    52.46    54.25    
 45.73    
43662.82 44726.19 45820.70 46955.34 48237.98 49393.89 50530.77 51676.85 52640.42 53241.52 
 53448.58 53426.51 53158.32 52497.78 51414.45 50256.78 49294.25 48300.28 47246.76 46328.59 
 45292.96 44281.27 43353.78 42403.39 41461.96 40300.76 39368.31 38324.39 37258.20 36249.33 
 35227.79 34195.04 33089.26 31976.04 30886.15 29823.04 28752.96 27745.12 26809.93 25860.03 
 24961.27 24166.68 23372.09 22578.33 21862.41 21210.22 20620.54 20020.44 19427.62 18857.88 
 18236.19 17624.12 16973.06 16250.35 15580.76 14893.33 14212.64 13542.68 12858.84 12218.39 
 11565.07 10941.13 10304.44 9705.53  9175.98  8679.92  8211.07  7702.29  7172.55  6646.79  
 6162.40  5692.13  5231.78  4788.50  4343.78  3906.85  3471.19  3010.71  2668.27  2326.42  
 2038.81  1779.64  1498.08  1279.66  1113.34  958.52   846.35   745.79   674.72   618.54   
 571.35   533.33   492.16   449.91   412.28   376.31   345.65   317.98   292.12   268.83   
 249.82   230.81   211.84   196.74   183.91   171.71   161.28   151.47   143.03   135.99   
 129.46   123.52   118.16   113.17   108.53   104.10   100.20   96.81    93.59    90.46    
 87.20    84.54    81.57    78.58    76.06    73.32    70.61    68.21    65.93    63.39    
 60.97    58.64    56.05    53.66    51.49    49.47    47.25    45.27    43.41    41.68    
 39.68    37.78    35.28    32.60    30.79    29.10    27.88    25.49    18.79    17.82    
 18.17    19.26    20.71    22.19    23.72    25.24    26.77    28.30    29.81    31.30    
 32.80    34.26    35.67    37.07    38.45    39.81    41.12    42.43    43.77    45.56    
 47.04    48.57    49.95    51.27    52.61    54.01    55.43    56.85    58.27    59.64    
 45.73    
43662.82 44205.28 44764.07 45441.56 46119.98 46777.47 47402.24 47763.25 47904.06 48016.09 
 48219.58 48358.90 48535.90 48502.91 48433.80 48567.16 48354.46 48157.69 47861.84 47530.67 
 47023.46 46549.04 45895.31 45144.46 44159.58 43153.67 42155.27 41094.76 39962.21 38951.11 
 38009.92 37141.96 36163.88 35116.01 34079.02 32965.66 31912.86 30875.84 29887.54 28877.85 
 27883.20 26881.07 25901.78 25022.02 24116.42 23172.36 22239.44 21363.98 20496.62 19568.12 
 18592.06 17696.99 16844.71 16023.38 15240.54 14400.74 13598.65 12869.51 12251.87 11531.86 
 10849.03 10166.49 9527.94  8918.07  8294.92  7679.78  7119.71  6572.53  6065.37  5560.49  
 5056.00  4557.34  4108.43  3687.30  3303.60  2921.42  2598.10  2315.61  2047.03  1801.82  
 1586.66  1394.61  1223.29  1095.41  967.84   840.28   743.98   656.10   588.85   532.67   
 479.93   435.02   394.26   352.36   314.43   280.37   252.00   227.73   205.42   185.95   
 168.48   153.31   140.38   128.38   117.99   107.61   99.94    92.90    86.56    80.90    
 76.24    71.83    67.89    63.93    60.88    57.81    54.63    51.70    49.14    46.84    
 44.67    41.93    39.71    37.54    35.51    33.55    31.43    29.46    27.25    25.30    
 22.84    19.99    16.93    15.51    14.44    14.11    14.41    15.28    16.30    17.34    
 18.42    19.53    20.64    21.78    22.95    24.15    25.36    26.57    27.80    29.04    
 30.29    31.49    32.70    33.94    35.20    36.42    37.60    38.81    40.03    41.23    
 42.39    43.56    44.74    45.93    47.10    48.26    49.41    51.33    52.85    54.03    
 55.20    56.40    57.59    58.75    59.90    61.07    62.21    63.36    64.46    65.46    
 45.73    
43662.82 43668.46 43664.55 43852.36 44062.21 44239.79 43839.12 43355.33 43177.89 42796.61 
 42133.35 41754.39 41262.87 40586.23 40287.30 39820.51 39066.07 38589.87 37826.00 37409.67 
 36734.19 36099.47 35505.20 34799.55 34252.46 33519.28 32632.19 31725.96 30988.61 30221.51 
 29314.33 28449.35 27417.21 26439.01 25437.48 24511.60 23490.63 22544.59 21466.33 20415.69 
 19317.55 18382.40 17385.42 16451.53 15338.71 14391.56 13550.19 12705.98 12089.56 11171.35 
 10249.99 9453.55  8544.23  7841.44  7203.10  6540.00  5926.80  5407.73  4863.37  4321.16  
 3868.54  3409.99  3060.52  2729.83  2415.94  2112.78  1857.10  1623.03  1398.11  1220.28  
 1050.83  881.47   745.84   622.63   513.73   423.73   341.64   269.04   214.47   168.18   
 131.65   101.73   71.87    57.62    46.12    35.25    19.25    4.43     3.80     3.68     
 3.64     3.57     3.48     3.45     3.29     3.43     3.64     3.86     4.11     4.38     
 4.69     5.02     5.38     5.75     6.16     6.62     7.10     7.59     8.08     8.58     
 9.17     9.80     10.45    11.12    11.81    12.57    13.36    14.16    14.98    15.82    
 16.72    17.65    18.59    19.57    20.55    21.55    22.60    23.70    24.80    25.92    
 27.04    28.22    29.39    30.57    31.77    32.97    34.15    35.27    36.30    37.38    
 38.47    39.55    40.66    41.74    42.71    43.70    44.68    45.64    46.56    47.48    
 48.41    49.29    50.15    50.95    51.78    52.51    53.21    53.85    54.50    55.09    
 55.65    56.21    56.70    57.18    57.60    57.97    58.47    59.76    60.09    60.33    
 60.49    60.59    60.58    60.46    60.24    59.92    59.53    59.03    58.45    57.69    
 45.73    
43662.82 43311.26 42997.63 42893.48 42901.27 42873.06 42431.39 41902.65 41078.44 40053.85 
 37297.76 35325.51 33040.07 30727.93 29492.19 28458.42 26726.47 25325.29 23924.10 22527.37 
 21720.17 19757.32 18036.03 16206.95 14381.29 13138.89 12118.78 11181.04 9505.36  8384.68  
 7295.65  6462.31  5711.19  4961.92  4191.82  3459.30  2841.67  2224.42  1649.99  1206.13  
 964.63   773.19   595.90   435.10   332.80   266.02   199.50   163.95   131.83   110.75   
 96.56    84.08    71.17    61.27    53.76    47.38    42.09    37.89    33.85    30.46    
 27.29    24.84    22.71    20.65    18.64    16.39    14.04    12.91    12.49    12.15    
 11.84    11.55    11.36    11.04    10.81    10.45    10.11    9.82     9.64     9.28     
 8.68     8.06     7.08     5.77     4.42     2.78     2.72     2.90     3.11     3.34     
 3.59     3.87     4.16     4.49     4.86     5.24     5.62     6.05     6.55     7.06     
 7.58     8.12     8.68     9.27     9.88     10.54    11.22    11.93    12.66    13.44    
 14.26    15.13    16.02    16.93    17.90    18.92    19.97    21.05    22.10    23.16    
 24.23    25.37    26.49    27.67    28.79    29.96    31.13    32.36    33.58    34.79    
 36.02    37.27    38.52    39.74    40.94    42.14    43.34    44.51    45.62    46.72    
 47.81    48.86    49.88    50.87    51.81    52.73    53.65    54.59    55.49    56.38    
 57.26    58.10    58.88    59.63    60.33    60.96    61.53    62.00    62.45    62.79    
 63.09    63.24    63.39    63.48    63.58    63.59    63.51    63.39    64.25    63.97    
 63.55    63.02    62.40    61.58    60.65    59.62    58.49    57.20    55.78    54.18    
 45.73    
43662.82 43045.97 42538.03 42287.99 42189.14 40090.68 36773.13 33104.00 31089.04 28709.62 
 26526.00 24060.10 21017.58 18052.87 16509.20 14358.73 11859.40 10124.15 8398.68  6662.66  
 5716.07  3617.47  1684.44  1311.36  955.77   600.19   437.23   335.61   251.31   191.36   
 152.91   132.08   118.95   105.90   95.02    84.77    76.22    69.43    62.78    56.83    
 51.21    45.61    40.58    36.38    32.58    29.55    26.82    24.44    22.04    19.57    
 16.95    15.01    13.83    13.08    12.37    11.65    10.97    10.36    9.81     9.31     
 8.76     8.25     7.75     7.32     6.96     6.64     6.33     6.05     5.78     5.56     
 5.37     5.19     4.92     4.69     4.52     4.36     4.17     3.94     3.76     3.59     
 3.40     3.24     3.09     3.04     3.10     3.30     3.53     3.79     4.06     4.36     
 4.69     5.04     5.42     5.82     6.29     6.78     7.28     7.82     8.41     9.04     
 9.69     10.37    11.10    11.87    12.67    13.50    14.33    15.24    16.15    17.11    
 18.09    19.09    20.11    21.19    22.28    23.42    24.57    25.74    26.93    28.16    
 29.40    30.67    31.98    33.31    34.60    35.92    37.31    38.70    40.09    41.47    
 42.86    44.27    45.70    47.11    48.55    49.92    51.32    52.72    54.11    55.48    
 56.82    58.16    59.51    60.84    62.14    63.42    64.67    65.84    66.93    67.97    
 68.97    69.86    70.67    71.41    72.13    72.69    73.14    73.47    73.69    73.82    
 73.87    73.90    73.72    73.46    73.11    72.63    72.09    71.37    70.51    69.62    
 68.55    67.36    65.98    64.43    62.79    60.88    58.85    56.64    54.38    51.92    
 45.73    
43662.82 42751.07 42141.77 41687.70 38432.32 33608.46 31171.09 28121.64 24364.20 20613.20 
 17698.37 15182.13 11673.50 9566.16  7124.59  4994.96  2865.34  754.12   533.73   450.54   
 359.79   303.41   264.28   225.23   196.09   173.95   137.30   111.26   89.65    70.60    
 62.18    55.51    50.73    46.81    43.79    40.84    38.09    36.18    34.36    31.98    
 28.90    26.52    25.50    24.25    23.94    23.19    22.31    21.03    19.84    18.37    
 17.03    15.77    14.32    12.82    11.40    10.35    9.60     9.09     8.54     7.90     
 7.32     6.80     6.33     5.88     5.48     5.09     4.68     4.39     4.15     3.98     
 3.84     3.68     3.57     3.46     3.37     3.31     3.25     3.23     3.23     3.23     
 3.28     3.35     3.46     3.61     3.78     3.96     4.15     4.35     4.57     4.80     
 5.05     5.31     5.60     5.93     6.30     6.70     7.12     7.61     8.12     8.65     
 9.22     9.79     10.42    11.07    11.77    12.50    13.26    14.04    14.86    15.73    
 16.64    17.59    18.51    19.48    20.51    21.55    22.62    23.70    24.77    25.85    
 26.95    28.12    29.32    30.51    31.70    32.91    34.20    35.50    36.85    38.23    
 39.64    41.10    42.61    44.13    45.71    47.33    49.01    50.74    52.45    54.20    
 56.04    57.85    59.63    61.43    63.19    64.96    66.66    68.31    69.88    71.42    
 72.92    74.36    75.68    76.97    78.12    79.10    79.89    80.51    80.92    81.19    
 81.28    81.17    80.84    80.34    79.67    78.85    77.86    76.61    75.28    73.77    
 72.09    70.26    68.29    66.12    63.79    61.29    58.64    55.84    52.76    49.58    
 45.73    
43662.82 42598.61 41961.87 39761.69 33794.47 30553.46 27015.54 22881.06 18715.20 15702.47 
 11698.00 9081.64  6481.26  1702.71  1020.33  381.92   312.43   189.21   198.12   166.61   
 151.68   128.22   104.67   93.62    82.25    81.57    70.76    68.55    58.20    57.34    
 50.47    51.57    53.92    42.57    42.19    36.54    38.30    37.02    42.80    35.44    
 41.12    33.13    39.17    32.25    33.25    28.08    29.33    26.67    21.34    22.31    
 19.71    19.47    14.29    10.56    9.06     8.89     8.92     8.25     7.49     6.84     
 6.23     5.72     5.20     4.70     4.27     3.91     3.62     3.36     3.12     2.91     
 2.74     2.63     2.56     2.50     2.46     2.44     2.44     2.44     2.45     2.49     
 2.57     2.66     2.76     2.89     3.03     3.18     3.34     3.52     3.70     3.90     
 4.12     4.36     4.61     4.90     5.22     5.57     5.97     6.39     6.85     7.35     
 7.85     8.39     8.98     9.62     10.27    10.96    11.68    12.44    13.22    14.02    
 14.87    15.76    16.68    17.63    18.62    19.62    20.68    21.77    22.88    24.02    
 25.19    26.34    27.55    28.74    29.94    31.13    32.36    33.57    34.80    36.02    
 37.26    38.54    39.87    41.24    42.63    44.10    45.66    47.29    48.96    50.65    
 52.37    54.15    56.03    57.99    60.00    62.09    64.24    66.32    68.40    70.47    
 72.47    74.29    76.02    77.62    79.18    80.58    81.82    82.97    83.96    84.73    
 85.24    85.45    85.42    85.05    84.39    83.45    82.19    80.67    78.91    76.94    
 74.77    72.39    69.79    67.01    64.15    61.09    57.94    54.72    51.22    47.71    
 45.73    
43662.82 42359.20 41598.58 39004.78 32748.30 29043.35 24370.29 19718.89 17200.26 11758.51 
 8870.38  7122.82  5375.26  3627.70  1880.14  148.32   119.89   107.49   102.13   87.27    
 47.25    33.07    28.01    23.84    20.70    18.31    16.68    14.99    13.85    13.28    
 12.51    11.62    10.81    9.80     9.14     8.72     8.37     8.12     7.87     7.53     
 7.19     6.87     6.52     6.30     6.01     5.71     5.43     5.19     4.95     4.68     
 4.43     4.20     3.96     3.74     3.51     3.29     3.09     2.93     2.79     2.67     
 2.58     2.50     2.43     2.36     2.30     2.24     2.19     2.16     2.12     2.09     
 2.07     2.05     2.05     2.05     2.05     2.06     2.06     2.08     2.11     2.15     
 2.22     2.28     2.36     2.45     2.55     2.67     2.78     2.90     3.05     3.22     
 3.38     3.54     3.73     3.95     4.19     4.46     4.75     5.08     5.44     5.85     
 6.29     6.78     7.28     7.80     8.35     8.93     9.55     10.17    10.82    11.50    
 12.22    12.98    13.74    14.49    15.31    16.16    17.09    18.03    19.03    20.02    
 21.08    22.18    23.38    24.60    25.86    27.12    28.47    29.88    31.26    32.65    
 34.02    35.41    36.84    38.26    39.65    41.05    42.51    43.98    45.44    47.00    
 48.65    50.36    52.14    53.98    55.85    57.82    59.85    61.97    64.14    66.45    
 68.75    71.09    73.34    75.55    77.67    79.60    81.36    82.88    84.28    85.49    
 86.51    87.22    87.58    87.61    87.28    86.51    85.39    83.86    82.01    79.86    
 77.52    74.92    72.08    68.92    65.66    62.26    58.72    55.13    51.47    47.85    
 45.73    
43662.82 42353.21 41582.26 38445.80 32382.19 28364.77 24297.85 18738.23 15543.57 11823.08 
 8095.97  4368.86  2249.48  148.06   81.62    36.90    26.52    20.74    17.12    14.90    
 12.97    11.41    10.51    9.78     9.15     8.47     7.87     7.41     7.07     7.01     
 6.81     6.38     5.75     5.22     5.07     4.93     4.92     4.74     4.72     4.68     
 4.61     4.36     4.25     4.21     4.18     4.16     4.12     4.03     3.89     3.75     
 3.68     3.57     3.52     3.45     3.36     3.25     3.15     3.04     2.96     2.93     
 2.92     2.87     2.82     2.77     2.69     2.60     2.52     2.47     2.43     2.40     
 2.37     2.34     2.31     2.29     2.28     2.28     2.28     2.29     2.34     2.40     
 2.46     2.53     2.63     2.79     2.96     3.08     3.21     3.34     3.47     3.61     
 3.76     3.94     4.12     4.29     4.48     4.69     4.93     5.19     5.52     5.88     
 6.27     6.70     7.17     7.67     8.17     8.73     9.31     9.90     10.53    11.18    
 11.85    12.56    13.28    14.00    14.76    15.53    16.32    17.15    18.03    18.96    
 19.92    20.93    22.03    23.20    24.40    25.66    27.00    28.39    29.79    31.22    
 32.65    34.12    35.61    37.10    38.56    40.01    41.48    42.93    44.39    45.87    
 47.36    48.93    50.60    52.36    54.17    56.07    58.02    60.04    62.16    64.41    
 66.73    69.06    71.35    73.65    75.89    77.96    79.81    81.45    82.99    84.26    
 85.34    86.13    86.61    86.71    86.41    85.71    84.57    82.97    81.02    78.82    
 76.34    73.61    70.84    67.89    64.97    61.97    58.98    55.98    52.93    49.72    
 45.73    
