IESNA:LM-63-2002
[TEST] 1
[TESTLAB] AOK
[TESTDATE] 2020-04-23
[ISSUEDATE] 2020-04-23 18:36:58
[NEARFIELD] 
[LAMPPOSITION] 0,0
[OTHER] EVERFINE GO-2000A_V1 SYSTEM
[MANUFAC] AOK
[LUMCAT] A
[LUMINAIRE] AOK-300W-HV-L5-00-4080-T402-P
[LAMPCAT] B
[LAMP] 5050
[BALLAST] E
[BALLASTCAT] F
[OTHER] 
[OTHER] Gamma(deg)    Fz(lm)      Ft(lm)     %Lum    %Lamp
[OTHER]   0- 10      1138.13     1138.13     2.47     2.47
[OTHER]  10- 20      3203.29     4341.43     9.43     9.43
[OTHER]  20- 30      4763.76     9105.19    19.78    19.78
[OTHER]  30- 40      5925.80    15030.99    32.66    32.66
[OTHER]  40- 50      7170.18    22201.17    48.24    48.24
[OTHER]  50- 60      8983.67    31184.84    67.76    67.76
[OTHER]  60- 70     10006.07    41190.90    89.50    89.50
[OTHER]  70- 80      4352.57    45543.47    98.96    98.96
[OTHER]  80- 90       479.05    46022.52   100.00   100.00
[OTHER]  90-100         0.00    46022.52   100.00   100.00
[OTHER] 100-110         0.00    46022.52   100.00   100.00
[OTHER] 110-120         0.00    46022.52   100.00   100.00
[OTHER] 120-130         0.00    46022.52   100.00   100.00
[OTHER] 130-140         0.00    46022.52   100.00   100.00
[OTHER] 140-150         0.00    46022.52   100.00   100.00
[OTHER] 150-160         0.00    46022.52   100.00   100.00
[OTHER] 160-170         0.00    46022.52   100.00   100.00
[OTHER] 170-180         0.00    46022.52   100.00   100.00
[OTHER] 
TILT=NONE
1 46023 1 181 25 1 2 0.270 0.270 0.000
1.000 1 297.378
0.0    1.0    2.0    3.0    4.0    5.0    6.0    7.0    8.0    9.0    
 10.0   11.0   12.0   13.0   14.0   15.0   16.0   17.0   18.0   19.0   
 20.0   21.0   22.0   23.0   24.0   25.0   26.0   27.0   28.0   29.0   
 30.0   31.0   32.0   33.0   34.0   35.0   36.0   37.0   38.0   39.0   
 40.0   41.0   42.0   43.0   44.0   45.0   46.0   47.0   48.0   49.0   
 50.0   51.0   52.0   53.0   54.0   55.0   56.0   57.0   58.0   59.0   
 60.0   61.0   62.0   63.0   64.0   65.0   66.0   67.0   68.0   69.0   
 70.0   71.0   72.0   73.0   74.0   75.0   76.0   77.0   78.0   79.0   
 80.0   81.0   82.0   83.0   84.0   85.0   86.0   87.0   88.0   89.0   
 90.0   91.0   92.0   93.0   94.0   95.0   96.0   97.0   98.0   99.0   
 100.0  101.0  102.0  103.0  104.0  105.0  106.0  107.0  108.0  109.0  
 110.0  111.0  112.0  113.0  114.0  115.0  116.0  117.0  118.0  119.0  
 120.0  121.0  122.0  123.0  124.0  125.0  126.0  127.0  128.0  129.0  
 130.0  131.0  132.0  133.0  134.0  135.0  136.0  137.0  138.0  139.0  
 140.0  141.0  142.0  143.0  144.0  145.0  146.0  147.0  148.0  149.0  
 150.0  151.0  152.0  153.0  154.0  155.0  156.0  157.0  158.0  159.0  
 160.0  161.0  162.0  163.0  164.0  165.0  166.0  167.0  168.0  169.0  
 170.0  171.0  172.0  173.0  174.0  175.0  176.0  177.0  178.0  179.0  
 180.0  
0.0    15.0   30.0   45.0   60.0   75.0   90.0   105.0  120.0  135.0  
 150.0  165.0  180.0  195.0  210.0  225.0  240.0  255.0  270.0  285.0  
 300.0  315.0  330.0  345.0  360.0  
12183.27 12364.43 12524.37 12664.38 12786.99 12887.34 12965.99 13025.53 13066.42 13089.93 
 13099.83 13099.10 13089.04 13069.23 13039.68 12999.96 12949.37 12882.23 12803.57 12714.73 
 12622.83 12531.74 12448.62 12377.31 12311.59 12245.51 12179.42 12119.78 12066.33 12016.71 
 11969.24 11925.56 11889.04 11867.69 11871.64 11886.35 11850.89 11795.59 11738.16 11687.24 
 11658.15 11658.64 11688.37 11751.10 11829.30 11919.40 12026.82 12154.54 12275.35 12386.86 
 12492.96 12600.96 12669.24 12704.79 12721.11 12738.89 12749.14 12740.45 12719.82 12712.90 
 12744.69 12807.75 12829.04 12610.89 12023.96 11068.36 9851.72  8587.25  7500.31  6209.21  
 4532.74  3213.98  2444.55  2054.26  1863.30  1701.57  1523.84  1366.42  1264.95  1178.43  
 1092.07  987.14   885.34   781.79   673.08   537.59   410.72   276.49   161.96   83.21    
 0.00     0.00     0.00     0.00     0.00     0.00     0.00     0.00     0.00     0.00     
 0.00     0.00     0.00     0.00     0.00     0.00     0.00     0.00     0.00     0.00     
 0.00     0.00     0.00     0.00     0.00     0.00     0.00     0.00     0.00     0.00     
 0.00     0.00     0.00     0.00     0.00     0.00     0.00     0.00     0.00     0.00     
 0.00     0.00     0.00     0.00     0.00     0.00     0.00     0.00     0.00     0.00     
 0.00     0.00     0.00     0.00     0.00     0.00     0.00     0.00     0.00     0.00     
 0.00     0.00     0.00     0.00     0.00     0.00     0.00     0.00     0.00     0.00     
 0.00     0.00     0.00     0.00     0.00     0.00     0.00     0.00     0.00     0.00     
 0.00     0.00     0.00     0.00     0.00     0.00     0.00     0.00     0.00     0.00     
 0.00     
12183.27 12357.77 12512.80 12652.13 12774.49 12879.43 12963.61 13028.31 13075.96 13107.65 
 13125.38 13133.36 13132.02 13122.62 13104.74 13078.35 13040.96 12994.20 12934.74 12864.52 
 12789.45 12710.62 12634.34 12562.75 12498.34 12436.89 12378.42 12323.35 12273.81 12230.60 
 12190.89 12155.34 12127.51 12119.42 12159.21 12242.15 12256.88 12212.28 12158.50 12111.51 
 12071.84 12050.04 12053.63 12083.48 12135.75 12204.08 12281.36 12372.19 12475.67 12582.89 
 12685.94 12792.41 12903.73 12996.99 13067.30 13129.63 13192.30 13246.34 13272.86 13278.00 
 13289.27 13327.05 13370.15 13352.05 13090.07 12446.53 11417.71 10136.35 8885.86  7754.00  
 6384.95  4631.52  3759.69  2887.86  2022.75  1834.89  1677.96  1507.80  1355.73  1245.33  
 1152.27  1050.19  945.07   840.39   729.00   596.67   467.58   326.08   184.59   43.91    
 0.00     0.00     0.00     0.00     0.00     0.00     0.00     0.00     0.00     0.00     
 0.00     0.00     0.00     0.00     0.00     0.00     0.00     0.00     0.00     0.00     
 0.00     0.00     0.00     0.00     0.00     0.00     0.00     0.00     0.00     0.00     
 0.00     0.00     0.00     0.00     0.00     0.00     0.00     0.00     0.00     0.00     
 0.00     0.00     0.00     0.00     0.00     0.00     0.00     0.00     0.00     0.00     
 0.00     0.00     0.00     0.00     0.00     0.00     0.00     0.00     0.00     0.00     
 0.00     0.00     0.00     0.00     0.00     0.00     0.00     0.00     0.00     0.00     
 0.00     0.00     0.00     0.00     0.00     0.00     0.00     0.00     0.00     0.00     
 0.00     0.00     0.00     0.00     0.00     0.00     0.00     0.00     0.00     0.00     
 0.00     
12183.27 12338.10 12482.36 12608.10 12718.59 12815.26 12899.95 12971.13 13027.95 13070.39 
 13103.89 13128.92 13145.50 13154.88 13160.83 13160.48 13152.13 13138.25 13115.95 13085.19 
 13047.65 13004.60 12959.81 12912.49 12861.80 12813.59 12768.74 12726.98 12688.05 12654.17 
 12627.87 12609.18 12603.12 12627.71 12710.33 12847.95 12959.00 12955.14 12897.50 12851.69 
 12823.99 12816.55 12808.53 12800.92 12815.88 12868.29 12948.31 13047.44 13166.02 13301.53 
 13455.64 13621.61 13793.17 13981.49 14165.43 14344.71 14517.67 14684.71 14844.99 14994.32 
 15129.32 15239.59 15339.06 15439.24 15526.06 15561.34 15425.11 14931.66 14026.56 12776.53 
 11329.97 9932.37  8448.54  6508.62  4424.28  2948.27  2110.89  1760.30  1561.21  1426.08  
 1307.13  1179.24  1051.25  923.26   778.12   628.49   478.31   321.79   154.89   79.74    
 0.00     0.00     0.00     0.00     0.00     0.00     0.00     0.00     0.00     0.00     
 0.00     0.00     0.00     0.00     0.00     0.00     0.00     0.00     0.00     0.00     
 0.00     0.00     0.00     0.00     0.00     0.00     0.00     0.00     0.00     0.00     
 0.00     0.00     0.00     0.00     0.00     0.00     0.00     0.00     0.00     0.00     
 0.00     0.00     0.00     0.00     0.00     0.00     0.00     0.00     0.00     0.00     
 0.00     0.00     0.00     0.00     0.00     0.00     0.00     0.00     0.00     0.00     
 0.00     0.00     0.00     0.00     0.00     0.00     0.00     0.00     0.00     0.00     
 0.00     0.00     0.00     0.00     0.00     0.00     0.00     0.00     0.00     0.00     
 0.00     0.00     0.00     0.00     0.00     0.00     0.00     0.00     0.00     0.00     
 0.00     
12183.27 12309.70 12426.01 12536.38 12640.40 12736.79 12823.86 12901.21 12970.35 13031.65 
 13085.32 13130.56 13171.55 13206.20 13235.35 13260.30 13283.56 13305.11 13324.11 13338.43 
 13349.42 13358.26 13362.05 13363.31 13364.14 13362.42 13357.74 13350.57 13345.51 13342.12 
 13338.78 13339.72 13352.63 13394.06 13482.99 13632.59 13808.24 13941.18 13942.18 13823.94 
 13731.64 13719.73 13752.42 13799.59 13873.06 13979.96 14119.83 14288.10 14489.86 14730.01 
 14996.77 15283.42 15589.15 15918.46 16272.28 16636.55 16996.39 17377.42 17785.07 18213.18 
 18629.95 19045.21 19434.10 19783.08 20079.48 20341.73 20537.06 20659.64 20714.00 20689.60 
 20482.77 19852.36 18576.72 16676.17 14218.24 11462.42 8539.77  5501.84  3714.23  1937.08  
 1411.42  1109.10  856.40   678.80   542.97   422.73   314.71   206.68   98.78    7.15     
 0.00     0.00     0.00     0.00     0.00     0.00     0.00     0.00     0.00     0.00     
 0.00     0.00     0.00     0.00     0.00     0.00     0.00     0.00     0.00     0.00     
 0.00     0.00     0.00     0.00     0.00     0.00     0.00     0.00     0.00     0.00     
 0.00     0.00     0.00     0.00     0.00     0.00     0.00     0.00     0.00     0.00     
 0.00     0.00     0.00     0.00     0.00     0.00     0.00     0.00     0.00     0.00     
 0.00     0.00     0.00     0.00     0.00     0.00     0.00     0.00     0.00     0.00     
 0.00     0.00     0.00     0.00     0.00     0.00     0.00     0.00     0.00     0.00     
 0.00     0.00     0.00     0.00     0.00     0.00     0.00     0.00     0.00     0.00     
 0.00     0.00     0.00     0.00     0.00     0.00     0.00     0.00     0.00     0.00     
 0.00     
12183.27 12271.61 12357.39 12440.20 12522.15 12598.45 12672.81 12743.81 12814.35 12881.13 
 12943.28 13001.61 13057.81 13111.06 13160.10 13207.84 13253.36 13297.30 13338.73 13380.12 
 13421.10 13462.90 13503.05 13538.58 13574.48 13609.12 13642.92 13679.12 13721.70 13769.37 
 13819.60 13879.46 13970.75 14121.28 14350.18 14574.52 14699.35 14711.51 14683.69 14682.91 
 14721.28 14809.79 14937.72 15096.60 15285.06 15511.45 15767.93 16058.16 16365.47 16718.11 
 17086.94 17476.54 17880.99 18310.67 18756.93 19224.67 19704.78 20215.52 20742.47 21274.61 
 21795.10 22276.53 22725.09 23107.74 23417.79 23613.86 23671.23 23559.53 23216.18 22641.73 
 21830.32 20691.20 19201.95 17355.19 15208.99 12682.32 9809.61  6635.99  4026.74  2360.86  
 1653.05  1332.62  1069.35  806.63   600.22   427.51   280.22   156.57   81.45    6.90     
 0.00     0.00     0.00     0.00     0.00     0.00     0.00     0.00     0.00     0.00     
 0.00     0.00     0.00     0.00     0.00     0.00     0.00     0.00     0.00     0.00     
 0.00     0.00     0.00     0.00     0.00     0.00     0.00     0.00     0.00     0.00     
 0.00     0.00     0.00     0.00     0.00     0.00     0.00     0.00     0.00     0.00     
 0.00     0.00     0.00     0.00     0.00     0.00     0.00     0.00     0.00     0.00     
 0.00     0.00     0.00     0.00     0.00     0.00     0.00     0.00     0.00     0.00     
 0.00     0.00     0.00     0.00     0.00     0.00     0.00     0.00     0.00     0.00     
 0.00     0.00     0.00     0.00     0.00     0.00     0.00     0.00     0.00     0.00     
 0.00     0.00     0.00     0.00     0.00     0.00     0.00     0.00     0.00     0.00     
 0.00     
12183.27 12229.77 12275.87 12323.22 12371.02 12421.75 12472.06 12521.53 12572.13 12622.43 
 12671.04 12719.24 12767.87 12817.34 12867.20 12914.14 12962.32 13008.83 13055.31 13099.59 
 13144.83 13190.06 13234.44 13278.00 13323.25 13369.80 13420.56 13474.71 13532.23 13592.38 
 13663.84 13763.99 13914.14 14124.53 14315.23 14407.74 14442.39 14475.21 14536.82 14631.85 
 14760.97 14907.44 15076.71 15267.14 15479.94 15710.01 15950.27 16204.41 16464.39 16720.28 
 16988.50 17274.88 17576.89 17894.01 18218.33 18548.52 18878.69 19205.44 19524.49 19827.53 
 20118.46 20369.78 20596.42 20782.00 20921.92 20939.04 20705.75 20161.23 19307.75 18163.44 
 16695.25 14955.16 12899.53 10656.69 8286.49  6038.95  4216.92  3247.44  2281.08  1699.63  
 1265.86  946.22   702.72   521.54   388.10   284.19   180.43   98.06    28.91    7.75     
 0.00     0.00     0.00     0.00     0.00     0.00     0.00     0.00     0.00     0.00     
 0.00     0.00     0.00     0.00     0.00     0.00     0.00     0.00     0.00     0.00     
 0.00     0.00     0.00     0.00     0.00     0.00     0.00     0.00     0.00     0.00     
 0.00     0.00     0.00     0.00     0.00     0.00     0.00     0.00     0.00     0.00     
 0.00     0.00     0.00     0.00     0.00     0.00     0.00     0.00     0.00     0.00     
 0.00     0.00     0.00     0.00     0.00     0.00     0.00     0.00     0.00     0.00     
 0.00     0.00     0.00     0.00     0.00     0.00     0.00     0.00     0.00     0.00     
 0.00     0.00     0.00     0.00     0.00     0.00     0.00     0.00     0.00     0.00     
 0.00     0.00     0.00     0.00     0.00     0.00     0.00     0.00     0.00     0.00     
 0.00     
12183.27 12183.65 12184.50 12186.60 12190.80 12195.85 12201.76 12208.93 12216.53 12224.14 
 12230.92 12239.35 12245.72 12253.31 12258.83 12264.32 12267.72 12269.85 12270.29 12268.63 
 12265.68 12262.72 12258.51 12253.45 12249.21 12243.31 12236.56 12229.81 12222.63 12220.87 
 12234.21 12284.91 12380.35 12464.19 12453.42 12383.05 12321.65 12294.24 12294.80 12316.09 
 12357.69 12418.75 12493.82 12579.10 12677.86 12786.80 12901.72 13015.03 13124.13 13237.38 
 13357.46 13483.35 13618.09 13765.05 13922.60 14084.88 14257.65 14433.47 14608.90 14757.15 
 14856.99 14889.70 14872.99 14811.40 14681.61 14436.95 13999.99 13358.09 12531.18 11553.37 
 10434.65 9173.88  7814.08  6429.13  5088.12  3900.51  2909.00  2158.81  1603.25  1199.14  
 968.66   740.09   598.22   478.90   369.37   266.97   167.40   91.40    15.69    9.25     
 0.00     0.00     0.00     0.00     0.00     0.00     0.00     0.00     0.00     0.00     
 0.00     0.00     0.00     0.00     0.00     0.00     0.00     0.00     0.00     0.00     
 0.00     0.00     0.00     0.00     0.00     0.00     0.00     0.00     0.00     0.00     
 0.00     0.00     0.00     0.00     0.00     0.00     0.00     0.00     0.00     0.00     
 0.00     0.00     0.00     0.00     0.00     0.00     0.00     0.00     0.00     0.00     
 0.00     0.00     0.00     0.00     0.00     0.00     0.00     0.00     0.00     0.00     
 0.00     0.00     0.00     0.00     0.00     0.00     0.00     0.00     0.00     0.00     
 0.00     0.00     0.00     0.00     0.00     0.00     0.00     0.00     0.00     0.00     
 0.00     0.00     0.00     0.00     0.00     0.00     0.00     0.00     0.00     0.00     
 0.00     
12183.27 12126.50 12070.14 12013.78 11956.16 11897.41 11835.96 11774.48 11710.89 11643.47 
 11575.17 11503.90 11430.06 11351.54 11270.02 11185.52 11101.21 11013.73 10921.13 10825.53 
 10726.93 10630.85 10534.79 10435.35 10332.91 10235.53 10139.46 10048.31 9954.84  9863.88  
 9782.67  9724.40  9698.92  9675.84  9592.25  9463.69  9338.57  9231.70  9137.09  9047.81  
 8960.27  8870.63  8775.90  8680.28  8576.61  8459.74  8327.52  8191.79  8050.94  7902.43  
 7743.69  7578.96  7405.28  7220.95  7022.98  6816.42  6605.98  6394.66  6173.59  5939.31  
 5706.62  5465.70  5216.04  4940.07  4632.97  4306.55  3960.91  3593.09  3183.16  2739.01  
 2306.01  1903.19  1559.17  1289.89  1172.35  1056.29  960.72   870.26   780.95   690.32   
 604.92   520.29   441.05   365.16   295.01   224.41   152.22   89.30    26.47    16.34    
 0.00     0.00     0.00     0.00     0.00     0.00     0.00     0.00     0.00     0.00     
 0.00     0.00     0.00     0.00     0.00     0.00     0.00     0.00     0.00     0.00     
 0.00     0.00     0.00     0.00     0.00     0.00     0.00     0.00     0.00     0.00     
 0.00     0.00     0.00     0.00     0.00     0.00     0.00     0.00     0.00     0.00     
 0.00     0.00     0.00     0.00     0.00     0.00     0.00     0.00     0.00     0.00     
 0.00     0.00     0.00     0.00     0.00     0.00     0.00     0.00     0.00     0.00     
 0.00     0.00     0.00     0.00     0.00     0.00     0.00     0.00     0.00     0.00     
 0.00     0.00     0.00     0.00     0.00     0.00     0.00     0.00     0.00     0.00     
 0.00     0.00     0.00     0.00     0.00     0.00     0.00     0.00     0.00     0.00     
 0.00     
12183.27 12073.68 11964.87 11850.49 11727.57 11596.19 11461.82 11324.39 11178.46 11027.00 
 10867.97 10712.28 10553.62 10392.86 10233.41 10076.91 9921.30  9769.15  9624.69  9488.20  
 9354.35  9225.66  9105.88  8990.74  8876.47  8763.02  8648.71  8532.18  8406.66  8269.49  
 8110.25  7931.93  7748.10  7560.54  7340.67  7059.94  6730.64  6393.97  6040.24  5669.05  
 5283.61  4904.03  4543.03  4202.13  3886.04  3601.01  3339.36  3095.07  2892.87  2690.67  
 2489.34  2358.39  2252.82  2170.83  2108.63  2060.65  2016.26  1972.64  1929.03  1886.20  
 1843.99  1800.38  1753.61  1704.14  1652.79  1599.12  1541.24  1481.04  1420.26  1360.16  
 1299.74  1239.82  1179.49  1122.59  1064.53  1004.19  940.38   868.56   795.98   728.31   
 660.47   586.58   511.66   437.12   364.10   290.14   216.19   142.21   67.33    31.34    
 0.00     0.00     0.00     0.00     0.00     0.00     0.00     0.00     0.00     0.00     
 0.00     0.00     0.00     0.00     0.00     0.00     0.00     0.00     0.00     0.00     
 0.00     0.00     0.00     0.00     0.00     0.00     0.00     0.00     0.00     0.00     
 0.00     0.00     0.00     0.00     0.00     0.00     0.00     0.00     0.00     0.00     
 0.00     0.00     0.00     0.00     0.00     0.00     0.00     0.00     0.00     0.00     
 0.00     0.00     0.00     0.00     0.00     0.00     0.00     0.00     0.00     0.00     
 0.00     0.00     0.00     0.00     0.00     0.00     0.00     0.00     0.00     0.00     
 0.00     0.00     0.00     0.00     0.00     0.00     0.00     0.00     0.00     0.00     
 0.00     0.00     0.00     0.00     0.00     0.00     0.00     0.00     0.00     0.00     
 0.00     
12183.27 12028.82 11868.35 11695.54 11510.35 11311.63 11102.54 10889.54 10669.32 10446.07 
 10224.06 10009.68 9802.57  9602.29  9407.57  9228.57  9060.75  8905.23  8749.41  8594.85  
 8443.69  8286.64  8115.57  7923.21  7701.87  7460.40  7198.85  6911.24  6582.49  6209.37  
 5812.98  5407.91  4995.58  4601.80  4243.74  3919.86  3620.39  3331.29  3057.85  2818.85  
 2669.41  2595.69  2554.84  2521.05  2489.86  2460.39  2430.09  2400.62  2371.17  2340.44  
 2309.78  2277.36  2243.64  2209.91  2176.19  2139.50  2103.63  2067.77  2030.22  1988.83  
 1946.58  1901.05  1854.94  1807.15  1755.52  1703.87  1651.79  1598.86  1544.23  1486.62  
 1427.71  1367.53  1304.54  1238.40  1172.24  1106.08  1037.07  962.15   886.68   810.12   
 735.23   660.08   580.65   499.84   422.36   349.42   271.97   185.73   130.95   76.44    
 0.00     0.00     0.00     0.00     0.00     0.00     0.00     0.00     0.00     0.00     
 0.00     0.00     0.00     0.00     0.00     0.00     0.00     0.00     0.00     0.00     
 0.00     0.00     0.00     0.00     0.00     0.00     0.00     0.00     0.00     0.00     
 0.00     0.00     0.00     0.00     0.00     0.00     0.00     0.00     0.00     0.00     
 0.00     0.00     0.00     0.00     0.00     0.00     0.00     0.00     0.00     0.00     
 0.00     0.00     0.00     0.00     0.00     0.00     0.00     0.00     0.00     0.00     
 0.00     0.00     0.00     0.00     0.00     0.00     0.00     0.00     0.00     0.00     
 0.00     0.00     0.00     0.00     0.00     0.00     0.00     0.00     0.00     0.00     
 0.00     0.00     0.00     0.00     0.00     0.00     0.00     0.00     0.00     0.00     
 0.00     
12183.27 12000.12 11806.64 11593.10 11354.53 11099.13 10843.64 10580.09 10311.81 10042.83 
 9777.88  9534.61  9309.54  9094.32  8893.11  8702.98  8523.74  8341.44  8149.28  7942.31  
 7711.74  7452.58  7160.27  6838.85  6474.36  6061.60  5623.43  5170.93  4752.02  4362.23  
 4015.24  3692.24  3376.07  3069.81  2862.71  2787.85  2754.78  2721.80  2697.19  2675.63  
 2656.34  2637.69  2618.31  2599.16  2580.74  2562.46  2544.94  2525.86  2505.84  2486.44  
 2465.91  2444.91  2422.92  2398.60  2372.69  2345.30  2315.34  2281.98  2245.11  2206.37  
 2165.69  2122.29  2075.37  2025.39  1973.50  1919.66  1861.98  1801.22  1736.82  1671.66  
 1603.26  1532.21  1460.01  1389.45  1316.56  1241.71  1163.13  1081.44  997.65   916.76   
 835.87   753.81   669.37   591.16   513.79   436.03   354.92   256.34   157.73   56.58    
 0.00     0.00     0.00     0.00     0.00     0.00     0.00     0.00     0.00     0.00     
 0.00     0.00     0.00     0.00     0.00     0.00     0.00     0.00     0.00     0.00     
 0.00     0.00     0.00     0.00     0.00     0.00     0.00     0.00     0.00     0.00     
 0.00     0.00     0.00     0.00     0.00     0.00     0.00     0.00     0.00     0.00     
 0.00     0.00     0.00     0.00     0.00     0.00     0.00     0.00     0.00     0.00     
 0.00     0.00     0.00     0.00     0.00     0.00     0.00     0.00     0.00     0.00     
 0.00     0.00     0.00     0.00     0.00     0.00     0.00     0.00     0.00     0.00     
 0.00     0.00     0.00     0.00     0.00     0.00     0.00     0.00     0.00     0.00     
 0.00     0.00     0.00     0.00     0.00     0.00     0.00     0.00     0.00     0.00     
 0.00     
12183.27 11976.91 11753.46 11510.43 11242.74 10953.25 10659.44 10360.10 10065.35 9774.02  
 9499.61  9246.88  9016.29  8796.88  8587.27  8382.39  8176.42  7958.06  7707.95  7423.37  
 7113.13  6772.70  6376.69  5932.90  5463.79  4998.70  4570.41  4190.79  3845.49  3508.54  
 3191.08  2963.69  2884.85  2849.98  2827.31  2808.12  2791.49  2777.84  2765.93  2756.54  
 2748.43  2741.61  2736.90  2733.06  2728.38  2726.23  2724.10  2721.55  2716.88  2711.35  
 2705.41  2697.34  2687.98  2676.08  2658.67  2636.57  2609.78  2578.30  2540.45  2496.63  
 2448.96  2398.44  2345.23  2283.99  2218.44  2151.17  2080.93  2007.28  1931.49  1852.73  
 1774.36  1695.16  1615.74  1530.20  1446.71  1362.39  1277.64  1189.47  1101.27  1014.92  
 929.76   842.30   752.99   666.05   579.66   495.32   406.50   306.01   173.65   98.31    
 0.00     0.00     0.00     0.00     0.00     0.00     0.00     0.00     0.00     0.00     
 0.00     0.00     0.00     0.00     0.00     0.00     0.00     0.00     0.00     0.00     
 0.00     0.00     0.00     0.00     0.00     0.00     0.00     0.00     0.00     0.00     
 0.00     0.00     0.00     0.00     0.00     0.00     0.00     0.00     0.00     0.00     
 0.00     0.00     0.00     0.00     0.00     0.00     0.00     0.00     0.00     0.00     
 0.00     0.00     0.00     0.00     0.00     0.00     0.00     0.00     0.00     0.00     
 0.00     0.00     0.00     0.00     0.00     0.00     0.00     0.00     0.00     0.00     
 0.00     0.00     0.00     0.00     0.00     0.00     0.00     0.00     0.00     0.00     
 0.00     0.00     0.00     0.00     0.00     0.00     0.00     0.00     0.00     0.00     
 0.00     
12183.27 11977.64 11757.53 11516.14 11245.55 10949.74 10644.79 10345.22 10041.51 9742.57  
 9458.53  9194.45  8955.21  8726.20  8513.19  8306.32  8088.74  7849.97  7589.94  7303.22  
 6988.77  6622.06  6191.48  5745.76  5295.39  4841.57  4416.21  4024.48  3678.54  3347.11  
 3072.16  2931.20  2881.88  2855.69  2836.26  2821.89  2811.33  2802.88  2796.12  2791.05  
 2787.25  2784.73  2783.88  2782.66  2785.65  2791.61  2799.63  2805.55  2810.62  2814.43  
 2817.39  2820.35  2822.84  2821.50  2812.97  2798.51  2778.86  2744.64  2710.41  2675.98  
 2624.46  2563.13  2495.26  2423.33  2351.51  2279.34  2205.95  2128.62  2049.44  1969.47  
 1888.39  1804.67  1719.25  1634.63  1548.38  1458.38  1365.49  1270.62  1179.37  1090.21  
 1001.30  910.93   819.70   727.73   637.96   547.28   456.01   343.69   231.38   119.24   
 0.00     0.00     0.00     0.00     0.00     0.00     0.00     0.00     0.00     0.00     
 0.00     0.00     0.00     0.00     0.00     0.00     0.00     0.00     0.00     0.00     
 0.00     0.00     0.00     0.00     0.00     0.00     0.00     0.00     0.00     0.00     
 0.00     0.00     0.00     0.00     0.00     0.00     0.00     0.00     0.00     0.00     
 0.00     0.00     0.00     0.00     0.00     0.00     0.00     0.00     0.00     0.00     
 0.00     0.00     0.00     0.00     0.00     0.00     0.00     0.00     0.00     0.00     
 0.00     0.00     0.00     0.00     0.00     0.00     0.00     0.00     0.00     0.00     
 0.00     0.00     0.00     0.00     0.00     0.00     0.00     0.00     0.00     0.00     
 0.00     0.00     0.00     0.00     0.00     0.00     0.00     0.00     0.00     0.00     
 0.00     
12183.27 11976.91 11753.46 11510.43 11242.74 10953.25 10659.44 10360.10 10065.35 9774.02  
 9499.61  9246.88  9016.29  8796.88  8587.27  8382.39  8176.42  7958.06  7707.95  7423.37  
 7113.13  6772.70  6376.69  5932.90  5463.79  4998.70  4570.41  4190.79  3845.49  3508.54  
 3191.08  2963.69  2884.85  2849.98  2827.31  2808.12  2791.49  2777.84  2765.93  2756.54  
 2748.43  2741.61  2736.90  2733.06  2728.38  2726.23  2724.10  2721.55  2716.88  2711.35  
 2705.41  2697.34  2687.98  2676.08  2658.67  2636.57  2609.78  2578.30  2540.45  2496.63  
 2448.96  2398.44  2345.23  2283.99  2218.44  2151.17  2080.93  2007.28  1931.49  1852.73  
 1774.36  1695.16  1615.74  1530.20  1446.71  1362.39  1277.64  1189.47  1101.27  1014.92  
 929.76   842.30   752.99   666.05   579.66   495.32   406.50   306.01   173.65   98.31    
 0.00     0.00     0.00     0.00     0.00     0.00     0.00     0.00     0.00     0.00     
 0.00     0.00     0.00     0.00     0.00     0.00     0.00     0.00     0.00     0.00     
 0.00     0.00     0.00     0.00     0.00     0.00     0.00     0.00     0.00     0.00     
 0.00     0.00     0.00     0.00     0.00     0.00     0.00     0.00     0.00     0.00     
 0.00     0.00     0.00     0.00     0.00     0.00     0.00     0.00     0.00     0.00     
 0.00     0.00     0.00     0.00     0.00     0.00     0.00     0.00     0.00     0.00     
 0.00     0.00     0.00     0.00     0.00     0.00     0.00     0.00     0.00     0.00     
 0.00     0.00     0.00     0.00     0.00     0.00     0.00     0.00     0.00     0.00     
 0.00     0.00     0.00     0.00     0.00     0.00     0.00     0.00     0.00     0.00     
 0.00     
12183.27 12000.12 11806.64 11593.10 11354.53 11099.13 10843.64 10580.09 10311.81 10042.83 
 9777.88  9534.61  9309.54  9094.32  8893.11  8702.98  8523.74  8341.44  8149.28  7942.31  
 7711.74  7452.58  7160.27  6838.85  6474.36  6061.60  5623.43  5170.93  4752.02  4362.23  
 4015.24  3692.24  3376.07  3069.81  2862.71  2787.85  2754.78  2721.80  2697.19  2675.63  
 2656.34  2637.69  2618.31  2599.16  2580.74  2562.46  2544.94  2525.86  2505.84  2486.44  
 2465.91  2444.91  2422.92  2398.60  2372.69  2345.30  2315.34  2281.98  2245.11  2206.37  
 2165.69  2122.29  2075.37  2025.39  1973.50  1919.66  1861.98  1801.22  1736.82  1671.66  
 1603.26  1532.21  1460.01  1389.45  1316.56  1241.71  1163.13  1081.44  997.65   916.76   
 835.87   753.81   669.37   591.16   513.79   436.03   354.92   256.34   157.73   56.58    
 0.00     0.00     0.00     0.00     0.00     0.00     0.00     0.00     0.00     0.00     
 0.00     0.00     0.00     0.00     0.00     0.00     0.00     0.00     0.00     0.00     
 0.00     0.00     0.00     0.00     0.00     0.00     0.00     0.00     0.00     0.00     
 0.00     0.00     0.00     0.00     0.00     0.00     0.00     0.00     0.00     0.00     
 0.00     0.00     0.00     0.00     0.00     0.00     0.00     0.00     0.00     0.00     
 0.00     0.00     0.00     0.00     0.00     0.00     0.00     0.00     0.00     0.00     
 0.00     0.00     0.00     0.00     0.00     0.00     0.00     0.00     0.00     0.00     
 0.00     0.00     0.00     0.00     0.00     0.00     0.00     0.00     0.00     0.00     
 0.00     0.00     0.00     0.00     0.00     0.00     0.00     0.00     0.00     0.00     
 0.00     
12183.27 12028.82 11868.35 11695.54 11510.35 11311.63 11102.54 10889.54 10669.32 10446.07 
 10224.06 10009.68 9802.57  9602.29  9407.57  9228.57  9060.75  8905.23  8749.41  8594.85  
 8443.69  8286.64  8115.57  7923.21  7701.87  7460.40  7198.85  6911.24  6582.49  6209.37  
 5812.98  5407.91  4995.58  4601.80  4243.74  3919.86  3620.39  3331.29  3057.85  2818.85  
 2669.41  2595.69  2554.84  2521.05  2489.86  2460.39  2430.09  2400.62  2371.17  2340.44  
 2309.78  2277.36  2243.64  2209.91  2176.19  2139.50  2103.63  2067.77  2030.22  1988.83  
 1946.58  1901.05  1854.94  1807.15  1755.52  1703.87  1651.79  1598.86  1544.23  1486.62  
 1427.71  1367.53  1304.54  1238.40  1172.24  1106.08  1037.07  962.15   886.68   810.12   
 735.23   660.08   580.65   499.84   422.36   349.42   271.97   185.73   130.95   76.44    
 0.00     0.00     0.00     0.00     0.00     0.00     0.00     0.00     0.00     0.00     
 0.00     0.00     0.00     0.00     0.00     0.00     0.00     0.00     0.00     0.00     
 0.00     0.00     0.00     0.00     0.00     0.00     0.00     0.00     0.00     0.00     
 0.00     0.00     0.00     0.00     0.00     0.00     0.00     0.00     0.00     0.00     
 0.00     0.00     0.00     0.00     0.00     0.00     0.00     0.00     0.00     0.00     
 0.00     0.00     0.00     0.00     0.00     0.00     0.00     0.00     0.00     0.00     
 0.00     0.00     0.00     0.00     0.00     0.00     0.00     0.00     0.00     0.00     
 0.00     0.00     0.00     0.00     0.00     0.00     0.00     0.00     0.00     0.00     
 0.00     0.00     0.00     0.00     0.00     0.00     0.00     0.00     0.00     0.00     
 0.00     
12183.27 12073.68 11964.87 11850.49 11727.57 11596.19 11461.82 11324.39 11178.46 11027.00 
 10867.97 10712.28 10553.62 10392.86 10233.41 10076.91 9921.30  9769.15  9624.69  9488.20  
 9354.35  9225.66  9105.88  8990.74  8876.47  8763.02  8648.71  8532.18  8406.66  8269.49  
 8110.25  7931.93  7748.10  7560.54  7340.67  7059.94  6730.64  6393.97  6040.24  5669.05  
 5283.61  4904.03  4543.03  4202.13  3886.04  3601.01  3339.36  3095.07  2892.87  2690.67  
 2489.34  2358.39  2252.82  2170.83  2108.63  2060.65  2016.26  1972.64  1929.03  1886.20  
 1843.99  1800.38  1753.61  1704.14  1652.79  1599.12  1541.24  1481.04  1420.26  1360.16  
 1299.74  1239.82  1179.49  1122.59  1064.53  1004.19  940.38   868.56   795.98   728.31   
 660.47   586.58   511.66   437.12   364.10   290.14   216.19   142.21   67.33    31.34    
 0.00     0.00     0.00     0.00     0.00     0.00     0.00     0.00     0.00     0.00     
 0.00     0.00     0.00     0.00     0.00     0.00     0.00     0.00     0.00     0.00     
 0.00     0.00     0.00     0.00     0.00     0.00     0.00     0.00     0.00     0.00     
 0.00     0.00     0.00     0.00     0.00     0.00     0.00     0.00     0.00     0.00     
 0.00     0.00     0.00     0.00     0.00     0.00     0.00     0.00     0.00     0.00     
 0.00     0.00     0.00     0.00     0.00     0.00     0.00     0.00     0.00     0.00     
 0.00     0.00     0.00     0.00     0.00     0.00     0.00     0.00     0.00     0.00     
 0.00     0.00     0.00     0.00     0.00     0.00     0.00     0.00     0.00     0.00     
 0.00     0.00     0.00     0.00     0.00     0.00     0.00     0.00     0.00     0.00     
 0.00     
12183.27 12126.50 12070.14 12013.78 11956.16 11897.41 11835.96 11774.48 11710.89 11643.47 
 11575.17 11503.90 11430.06 11351.54 11270.02 11185.52 11101.21 11013.73 10921.13 10825.53 
 10726.93 10630.85 10534.79 10435.35 10332.91 10235.53 10139.46 10048.31 9954.84  9863.88  
 9782.67  9724.40  9698.92  9675.84  9592.25  9463.69  9338.57  9231.70  9137.09  9047.81  
 8960.27  8870.63  8775.90  8680.28  8576.61  8459.74  8327.52  8191.79  8050.94  7902.43  
 7743.69  7578.96  7405.28  7220.95  7022.98  6816.42  6605.98  6394.66  6173.59  5939.31  
 5706.62  5465.70  5216.04  4940.07  4632.97  4306.55  3960.91  3593.09  3183.16  2739.01  
 2306.01  1903.19  1559.17  1289.89  1172.35  1056.29  960.72   870.26   780.95   690.32   
 604.92   520.29   441.05   365.16   295.01   224.41   152.22   89.30    26.47    16.34    
 0.00     0.00     0.00     0.00     0.00     0.00     0.00     0.00     0.00     0.00     
 0.00     0.00     0.00     0.00     0.00     0.00     0.00     0.00     0.00     0.00     
 0.00     0.00     0.00     0.00     0.00     0.00     0.00     0.00     0.00     0.00     
 0.00     0.00     0.00     0.00     0.00     0.00     0.00     0.00     0.00     0.00     
 0.00     0.00     0.00     0.00     0.00     0.00     0.00     0.00     0.00     0.00     
 0.00     0.00     0.00     0.00     0.00     0.00     0.00     0.00     0.00     0.00     
 0.00     0.00     0.00     0.00     0.00     0.00     0.00     0.00     0.00     0.00     
 0.00     0.00     0.00     0.00     0.00     0.00     0.00     0.00     0.00     0.00     
 0.00     0.00     0.00     0.00     0.00     0.00     0.00     0.00     0.00     0.00     
 0.00     
12183.27 12183.65 12184.50 12186.60 12190.80 12195.85 12201.76 12208.93 12216.53 12224.14 
 12230.92 12239.35 12245.72 12253.31 12258.83 12264.32 12267.72 12269.85 12270.29 12268.63 
 12265.68 12262.72 12258.51 12253.45 12249.21 12243.31 12236.56 12229.81 12222.63 12220.87 
 12234.21 12284.91 12380.35 12464.19 12453.42 12383.05 12321.65 12294.24 12294.80 12316.09 
 12357.69 12418.75 12493.82 12579.10 12677.86 12786.80 12901.72 13015.03 13124.13 13237.38 
 13357.46 13483.35 13618.09 13765.05 13922.60 14084.88 14257.65 14433.47 14608.90 14757.15 
 14856.99 14889.70 14872.99 14811.40 14681.61 14436.95 13999.99 13358.09 12531.18 11553.37 
 10434.65 9173.88  7814.08  6429.13  5088.12  3900.51  2909.00  2158.81  1603.25  1199.14  
 968.66   740.09   598.22   478.90   369.37   266.97   167.40   91.40    15.69    9.25     
 0.00     0.00     0.00     0.00     0.00     0.00     0.00     0.00     0.00     0.00     
 0.00     0.00     0.00     0.00     0.00     0.00     0.00     0.00     0.00     0.00     
 0.00     0.00     0.00     0.00     0.00     0.00     0.00     0.00     0.00     0.00     
 0.00     0.00     0.00     0.00     0.00     0.00     0.00     0.00     0.00     0.00     
 0.00     0.00     0.00     0.00     0.00     0.00     0.00     0.00     0.00     0.00     
 0.00     0.00     0.00     0.00     0.00     0.00     0.00     0.00     0.00     0.00     
 0.00     0.00     0.00     0.00     0.00     0.00     0.00     0.00     0.00     0.00     
 0.00     0.00     0.00     0.00     0.00     0.00     0.00     0.00     0.00     0.00     
 0.00     0.00     0.00     0.00     0.00     0.00     0.00     0.00     0.00     0.00     
 0.00     
12183.27 12229.77 12275.87 12323.22 12371.02 12421.75 12472.06 12521.53 12572.13 12622.43 
 12671.04 12719.24 12767.87 12817.34 12867.20 12914.14 12962.32 13008.83 13055.31 13099.59 
 13144.83 13190.06 13234.44 13278.00 13323.25 13369.80 13420.56 13474.71 13532.23 13592.38 
 13663.84 13763.99 13914.14 14124.53 14315.23 14407.74 14442.39 14475.21 14536.82 14631.85 
 14760.97 14907.44 15076.71 15267.14 15479.94 15710.01 15950.27 16204.41 16464.39 16720.28 
 16988.50 17274.88 17576.89 17894.01 18218.33 18548.52 18878.69 19205.44 19524.49 19827.53 
 20118.46 20369.78 20596.42 20782.00 20921.92 20939.04 20705.75 20161.23 19307.75 18163.44 
 16695.25 14955.16 12899.53 10656.69 8286.49  6038.95  4216.92  3247.44  2281.08  1699.63  
 1265.86  946.22   702.72   521.54   388.10   284.19   180.43   98.06    28.91    7.75     
 0.00     0.00     0.00     0.00     0.00     0.00     0.00     0.00     0.00     0.00     
 0.00     0.00     0.00     0.00     0.00     0.00     0.00     0.00     0.00     0.00     
 0.00     0.00     0.00     0.00     0.00     0.00     0.00     0.00     0.00     0.00     
 0.00     0.00     0.00     0.00     0.00     0.00     0.00     0.00     0.00     0.00     
 0.00     0.00     0.00     0.00     0.00     0.00     0.00     0.00     0.00     0.00     
 0.00     0.00     0.00     0.00     0.00     0.00     0.00     0.00     0.00     0.00     
 0.00     0.00     0.00     0.00     0.00     0.00     0.00     0.00     0.00     0.00     
 0.00     0.00     0.00     0.00     0.00     0.00     0.00     0.00     0.00     0.00     
 0.00     0.00     0.00     0.00     0.00     0.00     0.00     0.00     0.00     0.00     
 0.00     
12183.27 12271.61 12357.39 12440.20 12522.15 12598.45 12672.81 12743.81 12814.35 12881.13 
 12943.28 13001.61 13057.81 13111.06 13160.10 13207.84 13253.36 13297.30 13338.73 13380.12 
 13421.10 13462.90 13503.05 13538.58 13574.48 13609.12 13642.92 13679.12 13721.70 13769.37 
 13819.60 13879.46 13970.75 14121.28 14350.18 14574.52 14699.35 14711.51 14683.69 14682.91 
 14721.28 14809.79 14937.72 15096.60 15285.06 15511.45 15767.93 16058.16 16365.47 16718.11 
 17086.94 17476.54 17880.99 18310.67 18756.93 19224.67 19704.78 20215.52 20742.47 21274.61 
 21795.10 22276.53 22725.09 23107.74 23417.79 23613.86 23671.23 23559.53 23216.18 22641.73 
 21830.32 20691.20 19201.95 17355.19 15208.99 12682.32 9809.61  6635.99  4026.74  2360.86  
 1653.05  1332.62  1069.35  806.63   600.22   427.51   280.22   156.57   81.45    6.90     
 0.00     0.00     0.00     0.00     0.00     0.00     0.00     0.00     0.00     0.00     
 0.00     0.00     0.00     0.00     0.00     0.00     0.00     0.00     0.00     0.00     
 0.00     0.00     0.00     0.00     0.00     0.00     0.00     0.00     0.00     0.00     
 0.00     0.00     0.00     0.00     0.00     0.00     0.00     0.00     0.00     0.00     
 0.00     0.00     0.00     0.00     0.00     0.00     0.00     0.00     0.00     0.00     
 0.00     0.00     0.00     0.00     0.00     0.00     0.00     0.00     0.00     0.00     
 0.00     0.00     0.00     0.00     0.00     0.00     0.00     0.00     0.00     0.00     
 0.00     0.00     0.00     0.00     0.00     0.00     0.00     0.00     0.00     0.00     
 0.00     0.00     0.00     0.00     0.00     0.00     0.00     0.00     0.00     0.00     
 0.00     
12183.27 12309.70 12426.01 12536.38 12640.40 12736.79 12823.86 12901.21 12970.35 13031.65 
 13085.32 13130.56 13171.55 13206.20 13235.35 13260.30 13283.56 13305.11 13324.11 13338.43 
 13349.42 13358.26 13362.05 13363.31 13364.14 13362.42 13357.74 13350.57 13345.51 13342.12 
 13338.78 13339.72 13352.63 13394.06 13482.99 13632.59 13808.24 13941.18 13942.18 13823.94 
 13731.64 13719.73 13752.42 13799.59 13873.06 13979.96 14119.83 14288.10 14489.86 14730.01 
 14996.77 15283.42 15589.15 15918.46 16272.28 16636.55 16996.39 17377.42 17785.07 18213.18 
 18629.95 19045.21 19434.10 19783.08 20079.48 20341.73 20537.06 20659.64 20714.00 20689.60 
 20482.77 19852.36 18576.72 16676.17 14218.24 11462.42 8539.77  5501.84  3714.23  1937.08  
 1411.42  1109.10  856.40   678.80   542.97   422.73   314.71   206.68   98.78    7.15     
 0.00     0.00     0.00     0.00     0.00     0.00     0.00     0.00     0.00     0.00     
 0.00     0.00     0.00     0.00     0.00     0.00     0.00     0.00     0.00     0.00     
 0.00     0.00     0.00     0.00     0.00     0.00     0.00     0.00     0.00     0.00     
 0.00     0.00     0.00     0.00     0.00     0.00     0.00     0.00     0.00     0.00     
 0.00     0.00     0.00     0.00     0.00     0.00     0.00     0.00     0.00     0.00     
 0.00     0.00     0.00     0.00     0.00     0.00     0.00     0.00     0.00     0.00     
 0.00     0.00     0.00     0.00     0.00     0.00     0.00     0.00     0.00     0.00     
 0.00     0.00     0.00     0.00     0.00     0.00     0.00     0.00     0.00     0.00     
 0.00     0.00     0.00     0.00     0.00     0.00     0.00     0.00     0.00     0.00     
 0.00     
12183.27 12338.10 12482.36 12608.10 12718.59 12815.26 12899.95 12971.13 13027.95 13070.39 
 13103.89 13128.92 13145.50 13154.88 13160.83 13160.48 13152.13 13138.25 13115.95 13085.19 
 13047.65 13004.60 12959.81 12912.49 12861.80 12813.59 12768.74 12726.98 12688.05 12654.17 
 12627.87 12609.18 12603.12 12627.71 12710.33 12847.95 12959.00 12955.14 12897.50 12851.69 
 12823.99 12816.55 12808.53 12800.92 12815.88 12868.29 12948.31 13047.44 13166.02 13301.53 
 13455.64 13621.61 13793.17 13981.49 14165.43 14344.71 14517.67 14684.71 14844.99 14994.32 
 15129.32 15239.59 15339.06 15439.24 15526.06 15561.34 15425.11 14931.66 14026.56 12776.53 
 11329.97 9932.37  8448.54  6508.62  4424.28  2948.27  2110.89  1760.30  1561.21  1426.08  
 1307.13  1179.24  1051.25  923.26   778.12   628.49   478.31   321.79   154.89   79.74    
 0.00     0.00     0.00     0.00     0.00     0.00     0.00     0.00     0.00     0.00     
 0.00     0.00     0.00     0.00     0.00     0.00     0.00     0.00     0.00     0.00     
 0.00     0.00     0.00     0.00     0.00     0.00     0.00     0.00     0.00     0.00     
 0.00     0.00     0.00     0.00     0.00     0.00     0.00     0.00     0.00     0.00     
 0.00     0.00     0.00     0.00     0.00     0.00     0.00     0.00     0.00     0.00     
 0.00     0.00     0.00     0.00     0.00     0.00     0.00     0.00     0.00     0.00     
 0.00     0.00     0.00     0.00     0.00     0.00     0.00     0.00     0.00     0.00     
 0.00     0.00     0.00     0.00     0.00     0.00     0.00     0.00     0.00     0.00     
 0.00     0.00     0.00     0.00     0.00     0.00     0.00     0.00     0.00     0.00     
 0.00     
12183.27 12357.77 12512.80 12652.13 12774.49 12879.43 12963.61 13028.31 13075.96 13107.65 
 13125.38 13133.36 13132.02 13122.62 13104.74 13078.35 13040.96 12994.20 12934.74 12864.52 
 12789.45 12710.62 12634.34 12562.75 12498.34 12436.89 12378.42 12323.35 12273.81 12230.60 
 12190.89 12155.34 12127.51 12119.42 12159.21 12242.15 12256.88 12212.28 12158.50 12111.51 
 12071.84 12050.04 12053.63 12083.48 12135.75 12204.08 12281.36 12372.19 12475.67 12582.89 
 12685.94 12792.41 12903.73 12996.99 13067.30 13129.63 13192.30 13246.34 13272.86 13278.00 
 13289.27 13327.05 13370.15 13352.05 13090.07 12446.53 11417.71 10136.35 8885.86  7754.00  
 6384.95  4631.52  3759.69  2887.86  2022.75  1834.89  1677.96  1507.80  1355.73  1245.33  
 1152.27  1050.19  945.07   840.39   729.00   596.67   467.58   326.08   184.59   43.91    
 0.00     0.00     0.00     0.00     0.00     0.00     0.00     0.00     0.00     0.00     
 0.00     0.00     0.00     0.00     0.00     0.00     0.00     0.00     0.00     0.00     
 0.00     0.00     0.00     0.00     0.00     0.00     0.00     0.00     0.00     0.00     
 0.00     0.00     0.00     0.00     0.00     0.00     0.00     0.00     0.00     0.00     
 0.00     0.00     0.00     0.00     0.00     0.00     0.00     0.00     0.00     0.00     
 0.00     0.00     0.00     0.00     0.00     0.00     0.00     0.00     0.00     0.00     
 0.00     0.00     0.00     0.00     0.00     0.00     0.00     0.00     0.00     0.00     
 0.00     0.00     0.00     0.00     0.00     0.00     0.00     0.00     0.00     0.00     
 0.00     0.00     0.00     0.00     0.00     0.00     0.00     0.00     0.00     0.00     
 0.00     
12183.27 12364.43 12524.37 12664.38 12786.99 12887.34 12965.99 13025.53 13066.42 13089.93 
 13099.83 13099.10 13089.04 13069.23 13039.68 12999.96 12949.37 12882.23 12803.57 12714.73 
 12622.83 12531.74 12448.62 12377.31 12311.59 12245.51 12179.42 12119.78 12066.33 12016.71 
 11969.24 11925.56 11889.04 11867.69 11871.64 11886.35 11850.89 11795.59 11738.16 11687.24 
 11658.15 11658.64 11688.37 11751.10 11829.30 11919.40 12026.82 12154.54 12275.35 12386.86 
 12492.96 12600.96 12669.24 12704.79 12721.11 12738.89 12749.14 12740.45 12719.82 12712.90 
 12744.69 12807.75 12829.04 12610.89 12023.96 11068.36 9851.72  8587.25  7500.31  6209.21  
 4532.74  3213.98  2444.55  2054.26  1863.30  1701.57  1523.84  1366.42  1264.95  1178.43  
 1092.07  987.14   885.34   781.79   673.08   537.59   410.72   276.49   161.96   83.21    
 0.00     0.00     0.00     0.00     0.00     0.00     0.00     0.00     0.00     0.00     
 0.00     0.00     0.00     0.00     0.00     0.00     0.00     0.00     0.00     0.00     
 0.00     0.00     0.00     0.00     0.00     0.00     0.00     0.00     0.00     0.00     
 0.00     0.00     0.00     0.00     0.00     0.00     0.00     0.00     0.00     0.00     
 0.00     0.00     0.00     0.00     0.00     0.00     0.00     0.00     0.00     0.00     
 0.00     0.00     0.00     0.00     0.00     0.00     0.00     0.00     0.00     0.00     
 0.00     0.00     0.00     0.00     0.00     0.00     0.00     0.00     0.00     0.00     
 0.00     0.00     0.00     0.00     0.00     0.00     0.00     0.00     0.00     0.00     
 0.00     0.00     0.00     0.00     0.00     0.00     0.00     0.00     0.00     0.00     
 0.00     
